HOLE:	U1352B
EXPEDITION:	317
TOP:	81.1260
BOTTOM:	470.9652
DEPTH_WMSF	APLC	STOF	SIGF	AFEC	ANEC
m	%	in	cu	cps	cps
81.1260	-999.2500	-999.2500	-999.2500	35.0000	36.0000
81.2784	-999.2500	-999.2500	-999.2500	28.4444	33.7778
81.4308	-999.2500	-999.2500	-999.2500	38.0000	32.7273
81.5832	-6.1242	-999.2500	-13.1203	26.4000	37.8182
81.7356	-3.9110	-999.2500	-8.2540	32.3636	33.1429
81.8880	64.5640	-999.2500	-1.3499	35.3846	35.4667
82.0404	-999.2500	-999.2500	-999.2500	32.0000	34.9474
82.1928	-999.2500	-999.2500	-999.2500	35.2500	28.3810
82.3452	-999.2500	-999.2500	-999.2500	34.7273	35.2381
82.4976	-999.2500	-999.2500	-999.2500	28.0000	36.5714
82.6500	-999.2500	-999.2500	-999.2500	36.5714	29.1429
82.8024	-999.2500	-999.2500	-999.2500	35.4286	32.1905
82.9548	-999.2500	-999.2500	-999.2500	33.3333	35.8182
83.1072	-999.2500	-999.2500	-999.2500	33.3333	26.0952
83.2596	-999.2500	-999.2500	-999.2500	29.2727	31.2000
83.4120	-999.2500	-999.2500	-999.2500	31.4000	35.2000
83.5644	653.1695	-999.2500	-18.5109	33.0000	33.6000
83.7168	3.0684	-999.2500	-10.7274	35.8095	36.8000
83.8692	-5.7700	-999.2500	-20.5981	32.8000	32.4000
84.0216	-999.2500	-999.2500	-999.2500	30.5263	32.8000
84.1740	-999.2500	-999.2500	-999.2500	38.4762	30.6667
84.3264	-999.2500	-999.2500	-999.2500	33.0000	30.3158
84.4788	-6.0522	-999.2500	-24.2408	39.0000	34.8571
84.6312	653.1475	-999.2500	-9.3904	37.2000	32.6000
84.7836	-999.2500	-999.2500	-999.2500	32.4000	33.4545
84.9360	-999.2500	-999.2500	-999.2500	32.7273	34.0000
85.0884	-999.2500	-999.2500	-999.2500	33.2000	29.0000
85.2408	-999.2500	-999.2500	-999.2500	32.4000	29.4000
85.3932	-999.2500	-999.2500	-999.2500	34.4000	34.7368
85.5456	-5.2730	-999.2500	-20.9720	34.0000	31.6190
85.6980	10.7032	-999.2500	-12.8877	34.8000	31.3684
85.8504	6.9910	-999.2500	-11.8371	34.3158	36.8000
86.0028	12.6119	-999.2500	-8.3813	29.7143	32.8000
86.1552	653.1156	-999.2500	-6.9742	30.8000	29.6000
86.3076	-5.8934	-999.2500	-17.2839	33.8000	37.0000
86.4600	653.1094	-999.2500	-2.0545	35.1579	34.8000
86.6124	653.1061	-999.2500	1.9013	35.0000	30.8000
86.7648	-999.2500	-999.2500	-999.2500	41.8000	32.6000
86.9172	-999.2500	-999.2500	-999.2500	30.4000	30.2000
87.0696	-999.2500	-999.2500	-999.2500	36.3810	31.2000
87.2220	-999.2500	-999.2500	-999.2500	34.5263	31.4000
87.3744	-999.2500	-999.2500	-999.2500	33.3333	33.0000
87.5268	-999.2500	-999.2500	-999.2500	34.5263	35.4000
87.6792	-999.2500	-999.2500	-999.2500	34.2000	34.4000
87.8316	32.1071	-999.2500	-9.5281	34.0000	29.0000
87.9840	13.0525	-999.2500	-999.2500	29.4000	32.1905
88.1364	-999.2500	-999.2500	-999.2500	31.4000	29.4737
88.2888	-999.2500	-999.2500	-999.2500	35.4000	29.4000
88.4412	653.0674	-999.2500	-12.3657	37.3333	34.4000
88.5936	-999.2500	-999.2500	-999.2500	30.5263	27.0476
88.7460	-999.2500	-999.2500	-999.2500	27.8095	32.2105
88.8984	-999.2500	-999.2500	-999.2500	35.6000	29.6000
89.0508	-999.2500	-999.2500	-999.2500	30.8000	28.7619
89.2032	-999.2500	-999.2500	-999.2500	31.4000	35.2000
89.3556	-999.2500	-999.2500	-999.2500	33.9048	30.2000
89.5080	653.0450	-999.2500	1.0930	30.7368	32.7619
89.6604	-2.5141	-999.2500	-3.2123	29.3333	31.1579
89.8128	-3.0002	-999.2500	-9.4444	35.1579	28.0000
89.9652	-999.2500	-999.2500	-999.2500	39.4000	33.7143
90.1176	-999.2500	-999.2500	-999.2500	35.6190	34.0870
90.2700	-999.2500	-999.2500	-999.2500	34.3636	32.0000
90.4224	-999.2500	-999.2500	-999.2500	29.4545	29.9048
90.5748	-999.2500	-999.2500	-999.2500	31.8095	33.1429
90.7272	-999.2500	-999.2500	-999.2500	31.0476	29.2000
90.8796	-999.2500	-999.2500	-999.2500	31.6190	31.4286
91.0320	-999.2500	-999.2500	-999.2500	30.0000	31.2381
91.1844	-5.9298	-999.2500	-20.5120	31.8095	30.0000
91.3368	-999.2500	-999.2500	-999.2500	32.0000	32.0000
91.4892	-6.1643	-999.2500	-16.3235	33.3333	34.0000
91.6416	-6.1037	-999.2500	-14.2517	35.8095	28.0000
91.7940	-4.9525	-999.2500	-11.4045	33.5238	35.4286
91.9464	-6.0611	-999.2500	-14.1218	32.1905	31.0476
92.0988	21.5198	-999.2500	-2.5348	32.9524	33.9747
92.2512	-999.2500	-999.2500	-999.2500	32.5783	28.5000
92.4036	-999.2500	-999.2500	-999.2500	30.6667	31.1111
92.5560	-999.2500	-999.2500	-999.2500	36.5000	29.5000
92.7084	-999.2500	-999.2500	-999.2500	32.5000	31.0000
92.8608	-999.2500	-999.2500	-999.2500	26.0000	32.5000
93.0132	-999.2500	-999.2500	-999.2500	30.0000	38.5000
93.1656	652.9680	-999.2500	-7.7168	31.5000	39.5000
93.3180	127.2606	-999.2500	-7.7091	31.0000	29.0000
93.4704	3.9604	-999.2500	-8.8318	33.5000	27.5000
93.6228	-999.2500	-999.2500	-999.2500	36.5000	26.0000
93.7752	-999.2500	-999.2500	-999.2500	37.5000	34.5000
93.9276	-1.8891	-999.2500	0.4878	36.0000	28.5000
94.0800	-6.0781	-999.2500	-6.9539	33.5000	27.0000
94.2324	-999.2500	-999.2500	-999.2500	38.0000	30.0000
94.3848	-999.2500	-999.2500	-999.2500	33.5000	26.0000
94.5372	-999.2500	-999.2500	-999.2500	35.0000	26.5000
94.6896	-999.2500	-999.2500	-999.2500	37.5000	31.5000
94.8420	3.7911	-999.2500	1.8045	36.5000	35.5000
94.9944	17.6096	-999.2500	2.8712	29.5000	35.5000
95.1468	-1.3422	-999.2500	-0.8060	34.5000	29.5000
95.2992	2.3098	-999.2500	-4.9151	32.5000	27.5000
95.4516	-5.7164	-999.2500	-9.5529	41.0000	32.0000
95.6040	2.7667	-999.2500	-4.3434	29.5000	32.0000
95.7564	13.2362	-999.2500	-14.5471	35.5000	33.5000
95.9088	25.4741	-999.2500	-8.8253	33.0000	31.0000
96.0612	-999.2500	-999.2500	-999.2500	31.5000	28.0000
96.2136	5.7002	-999.2500	-7.5493	29.7778	34.0000
96.3660	71.5404	-999.2500	-6.7917	37.5000	34.5000
96.5184	-999.2500	-999.2500	-999.2500	39.5000	37.0000
96.6708	-999.2500	-999.2500	-999.2500	31.0000	38.5000
96.8232	-999.2500	-999.2500	-999.2500	40.5000	30.0000
96.9756	-999.2500	-999.2500	-999.2500	28.5000	37.0000
97.1280	-999.2500	-999.2500	-999.2500	35.5000	34.0000
97.2804	-999.2500	-999.2500	-999.2500	26.5000	35.5000
97.4328	-999.2500	-999.2500	-999.2500	31.5000	35.0000
97.5852	-999.2500	-999.2500	-999.2500	28.5000	33.7778
97.7376	-999.2500	-999.2500	-999.2500	36.0000	29.7143
97.8900	-999.2500	-999.2500	-999.2500	31.5000	36.8889
98.0424	-999.2500	-999.2500	-999.2500	29.5000	32.5000
98.1948	652.8627	-999.2500	4.1100	33.5000	37.5000
98.3472	-999.2500	-999.2500	-999.2500	31.0000	37.5000
98.4996	-999.2500	-999.2500	-999.2500	39.0000	32.5000
98.6520	-999.2500	-999.2500	-999.2500	36.5000	29.5000
98.8044	-999.2500	-999.2500	-999.2500	30.5000	28.5000
98.9568	-999.2500	-999.2500	-999.2500	27.5000	37.5000
99.1092	-999.2500	-999.2500	-999.2500	30.0000	31.5000
99.2616	-6.1504	-999.2500	-27.9974	44.0000	29.0000
99.4140	-999.2500	-999.2500	-999.2500	35.0000	33.0000
99.5664	-999.2500	-999.2500	-999.2500	37.0000	32.5000
99.7188	3.9673	-999.2500	-2.3358	37.5000	33.5000
99.8712	-999.2500	-999.2500	-999.2500	37.5000	30.5000
100.0236	-999.2500	-999.2500	-999.2500	35.1111	36.5000
100.1760	-5.5676	-999.2500	-6.4766	37.0000	27.5000
100.3284	1.7008	-999.2500	-5.0080	33.0000	31.0000
100.4808	1.9620	-999.2500	-4.8953	28.0000	42.0000
100.6332	132.3237	-999.2500	-3.6087	31.5000	33.0000
100.7856	7.3271	-999.2500	4.8996	39.0000	36.5000
100.9380	-5.5346	-999.2500	-9.5709	33.0000	30.5000
101.0904	2.6807	-999.2500	-0.8247	31.0000	28.0000
101.2428	8.0661	-999.2500	0.2836	32.5714	33.5000
101.3952	-999.2500	-999.2500	-999.2500	27.5000	37.7778
101.5476	-999.2500	-999.2500	-999.2500	22.5000	38.8571
101.7000	652.7892	-999.2500	-17.7459	32.0000	30.6667
101.8524	24.2799	-999.2500	-17.7546	34.5000	29.0000
102.0048	-999.2500	-999.2500	-999.2500	32.0000	32.5000
102.1572	-999.2500	-999.2500	-999.2500	33.0000	32.0000
102.3096	-6.0416	-999.2500	-8.6250	31.0000	28.0000
102.4620	-999.2500	-999.2500	-999.2500	26.0000	25.0000
102.6144	-999.2500	-999.2500	-999.2500	35.5000	36.0000
102.7668	-999.2500	-999.2500	-999.2500	39.5000	24.0000
102.9192	-999.2500	-999.2500	-999.2500	24.5000	28.0000
103.0716	-999.2500	-999.2500	-999.2500	30.0000	31.0000
103.2240	-999.2500	-999.2500	-999.2500	35.5000	34.0000
103.3764	-999.2500	-999.2500	-999.2500	34.0000	35.0000
103.5288	-999.2500	-999.2500	-999.2500	43.0000	34.0000
103.6812	-999.2500	-999.2500	-999.2500	34.5000	25.0000
103.8336	-999.2500	-999.2500	-999.2500	32.5000	25.5000
103.9860	-999.2500	-999.2500	-999.2500	35.5000	35.0000
104.1384	-999.2500	-999.2500	-999.2500	32.0000	33.5000
104.2908	-999.2500	-999.2500	-999.2500	37.0000	32.8000
104.4432	-5.1570	-999.2500	-21.1649	32.0000	32.4444
104.5956	-999.2500	-999.2500	-999.2500	37.2000	36.3636
104.7480	-999.2500	-999.2500	-999.2500	25.6000	30.8000
104.9004	-999.2500	-999.2500	-999.2500	30.8000	30.0000
105.0528	-999.2500	-999.2500	-999.2500	30.4000	32.0000
105.2052	-999.2500	-999.2500	-999.2500	24.7273	29.8182
105.3576	652.7125	2.0000	-999.2500	40.0000	33.3333
105.5100	652.7092	2.0000	-999.2500	32.0000	31.4667
105.6624	91.4994	-0.4189	32.9933	33.7143	424.9591
105.8148	30.5119	1.5694	28.3501	100.7536	2462.5000
105.9672	22.2551	2.0000	26.2360	445.5000	2422.0000
106.1196	60.5297	0.5154	31.8925	477.7143	2539.0000
106.2720	58.2910	0.5700	31.2965	461.5000	2404.5715
106.4244	61.7415	0.3041	30.1436	443.5000	2499.0000
106.5768	60.7247	0.4580	30.0306	482.0000	2525.5000
106.7292	62.6944	0.8823	29.0964	489.7143	2473.5000
106.8816	61.2877	0.9071	28.5040	445.5000	2472.0000
107.0340	59.3359	0.8973	28.9977	455.0000	2482.8572
107.1864	57.9635	0.9464	30.3455	461.0000	2469.0000
107.3388	58.1281	0.9455	30.9560	437.1429	2426.0000
107.4912	56.3982	0.9554	31.8778	500.5000	2478.0000
107.6436	61.0497	0.9077	33.2707	472.0000	2405.7144
107.7960	58.2015	0.9491	33.9156	463.0000	2427.0000
107.9484	58.4251	0.9412	33.0569	472.0000	2428.0000
108.1008	59.3658	0.9334	33.3258	491.0000	2435.0000
108.2532	58.9488	0.9344	31.4910	454.8571	2504.0000
108.4056	58.8494	0.9351	30.6170	471.0000	2462.5000
108.5580	56.6903	0.6597	32.0146	464.0000	2433.0000
108.7104	57.7430	0.8091	31.6252	468.0000	2473.1428
108.8628	53.5331	0.9759	31.1238	456.5000	2438.5000
109.0152	63.6330	0.8693	33.7685	472.0000	2464.5000
109.1676	64.4960	0.8492	35.5647	426.8571	2376.0000
109.3200	72.7203	0.6242	36.6731	460.0000	2459.0000
109.4724	71.0753	0.6788	37.4359	439.5000	2343.5000
109.6248	71.0969	0.6763	36.8424	430.0000	2397.0000
109.7772	66.4623	0.7818	36.1652	437.5000	2396.5715
109.9296	66.9413	0.7981	34.5064	455.5000	2366.5000
110.0820	61.9539	0.8946	33.6999	447.5000	2391.5000
110.2344	52.7392	0.9833	32.0350	439.5000	2468.5000
110.3868	55.0914	0.9645	32.4966	465.7143	2431.5000
110.5392	58.9275	0.7173	33.8888	418.0000	2407.5000
110.6916	62.6506	0.3257	34.3411	467.0000	2458.0000
110.8440	55.3505	0.4141	32.8199	437.5000	2458.8572
110.9964	54.8455	0.4379	31.9288	491.0000	2472.8889
111.1488	53.0687	0.2958	31.5253	458.5000	2492.0000
111.3012	55.7025	0.2886	30.6215	504.5000	2408.5715
111.4536	52.8140	0.3335	29.8725	487.5000	2508.5000
111.6060	50.3651	0.3993	29.0642	479.0000	2514.0000
111.7584	54.9712	0.3294	28.9854	480.5714	2532.5000
111.9108	55.4889	0.2858	29.9050	495.0000	2500.5000
112.0632	58.3971	0.0910	29.3391	478.5000	2512.0000
112.2156	54.3999	0.3675	28.5181	476.0000	2384.5000
112.3680	57.0669	0.2663	29.5035	459.0000	2535.5000
112.5204	55.8862	0.2386	30.4751	486.2857	2464.0000
112.6728	61.7316	0.1723	30.6786	467.0000	2512.5000
112.8252	53.7635	0.3460	30.6327	483.0000	2483.5000
112.9776	49.2581	0.2897	31.1298	473.5000	2539.5000
113.1300	41.3715	0.3761	30.5140	486.5000	2506.0000
113.2824	44.8778	0.3292	29.6118	499.0000	2550.2856
113.4348	49.6949	0.1768	30.0110	506.0000	2456.0000
113.5872	49.3717	0.2336	31.1221	476.5000	2493.1428
113.7396	47.4198	0.3302	30.7897	482.5000	2479.0000
113.8920	49.8699	0.2927	31.1017	481.5000	2475.5000
114.0444	54.8085	0.2411	32.6432	481.1429	2521.5000
114.1968	56.0409	0.4404	32.3079	473.5000	2486.5000
114.3492	52.1322	0.7316	32.0690	439.5000	2433.0000
114.5016	48.8379	1.0179	31.8486	461.0000	2459.5000
114.6540	49.8974	1.0133	32.0897	470.5000	2462.5000
114.8064	57.9317	0.4929	31.9853	454.0000	2502.8572
114.9588	52.5940	0.9999	29.8990	459.5000	2525.0000
115.1112	54.4159	0.9752	28.9140	449.5000	2523.0000
115.2636	54.7279	0.5211	28.5436	466.0000	2521.5000
115.4160	51.6202	0.9990	26.7610	445.1429	2499.5000
115.5684	50.8632	0.9968	26.9188	478.6667	2485.0000
115.7208	47.9060	1.0245	26.7042	491.0000	2477.5000
115.8732	51.4854	0.8701	28.0748	464.0000	2446.5000
116.0256	55.9169	0.4415	30.2423	462.5000	2459.0000
116.1780	56.8377	0.4699	31.2296	486.5000	2535.5000
116.3304	57.6557	0.7550	30.5949	460.5000	2515.5000
116.4828	54.8569	0.5216	30.2703	492.0000	2527.0000
116.6352	54.5302	0.5345	29.6892	446.0000	2515.5000
116.7876	52.7467	0.6879	30.1120	466.5000	2460.0000
116.9400	51.0841	0.7423	29.2275	468.0000	2424.5715
117.0924	53.9431	0.4078	30.6389	489.0000	2451.5000
117.2448	52.3172	0.5034	31.0747	489.5000	2463.5000
117.3972	57.0362	0.4674	31.7211	485.5000	2512.5000
117.5496	59.3842	0.3909	31.0584	478.8571	2480.5000
117.7020	58.1254	0.3801	31.1906	487.0000	2461.0000
117.8544	58.5429	0.5196	30.7423	486.0000	2584.5000
118.0068	55.4842	0.5381	30.4228	476.5000	2476.5715
118.1592	57.7742	0.3659	29.9206	470.5000	2552.5000
118.3116	53.7551	0.4198	30.6004	472.5000	2472.5000
118.4640	55.0079	0.4222	31.3711	440.5000	2445.5000
118.6164	56.7989	0.5492	31.3429	482.2857	2515.5000
118.7688	61.8920	0.7392	31.5095	470.5000	2417.0000
118.9212	66.4399	0.8160	31.9822	436.0000	2426.0000
119.0736	62.5204	0.8919	31.5098	462.5000	2411.0000
119.2260	64.4269	0.8573	31.5610	464.0000	2423.5000
119.3784	62.5341	0.8835	31.3553	438.5000	2360.5715
119.5308	64.5883	0.8458	31.2561	439.5000	2394.2222
119.6832	55.4730	0.8718	30.8649	474.5000	2430.5000
119.8356	51.6051	0.7452	30.3436	468.0000	2497.1428
119.9880	40.2606	0.9734	29.5162	450.0000	2421.5000
120.1404	47.5084	0.6482	31.2279	447.0000	2464.0000
120.2928	58.7983	0.6864	33.6062	443.5000	2416.0000
120.4452	60.9401	0.5993	33.9126	449.1429	2425.5000
120.5976	66.0651	0.8233	33.7242	450.5000	2465.0000
120.7500	62.5170	0.8816	32.9770	471.5000	2367.5000
120.9024	62.8059	0.8842	32.4306	470.5000	2496.5000
121.0548	56.1065	0.9618	29.7063	457.5000	2461.7144
121.2072	57.8344	0.9555	29.9678	464.0000	2417.0000
121.3596	55.3265	0.9749	29.7479	456.0000	2414.5000
121.5120	55.1313	0.9873	29.4170	467.0000	2478.0000
121.6644	55.6168	0.9720	29.2646	454.2857	2422.5000
121.8168	53.0205	0.9889	29.5227	454.5000	2474.5000
121.9692	49.3879	1.0121	28.9134	450.5000	2488.5715
122.1216	60.2379	0.8737	29.8291	451.5000	2412.5000
122.2740	64.4759	0.8531	30.0175	471.0000	2381.5000
122.4264	71.1204	0.4256	31.9481	454.2857	2386.5000
122.5788	68.2452	0.5081	32.9115	452.0000	2377.0000
122.7312	63.6070	0.5010	32.4376	436.0000	2407.0000
122.8836	57.4991	0.6757	30.7962	440.0000	2477.7144
123.0360	58.4545	0.3854	31.0140	472.0000	2426.0000
123.1884	57.9909	0.4620	28.7783	500.5000	2418.2222
123.3408	57.0714	0.5074	27.3470	423.5000	2468.0000
123.4932	54.5135	0.6964	27.9868	475.5000	2543.0000
123.6456	57.7566	0.5014	28.9304	470.5000	2489.0000
123.7980	57.3274	0.4981	29.5118	469.5000	2496.0000
123.9504	55.4766	0.8329	29.9277	481.1429	2491.0000
124.1028	59.2855	0.7312	29.9137	479.5000	2462.5000
124.2552	58.7443	0.6639	29.3344	458.5000	2453.5000
124.4076	58.2444	0.9079	28.1805	449.5000	2523.0000
124.5600	57.3710	0.7871	29.0922	476.5000	2544.5715
124.7124	57.6530	0.8965	29.7304	488.5000	2491.5000
124.8648	55.6539	0.9579	31.2840	463.5000	2451.0000
125.0172	53.9777	0.7058	31.8803	489.0000	2446.5000
125.1696	55.6630	0.6251	32.2249	494.0000	2548.0000
125.3220	57.6922	0.5620	30.6686	469.1429	2490.0000
125.4744	59.7415	0.4892	30.5701	483.5000	2439.5000
125.6268	57.9172	0.4332	30.3761	486.0000	2507.0000
125.7792	57.8255	0.6575	30.3870	464.5000	2455.0000
125.9316	59.9007	0.7831	29.2311	453.0000	2504.5715
126.0840	58.6514	0.8087	29.8800	468.5000	2513.0000
126.2364	59.7010	0.5277	29.5375	470.8571	2540.0000
126.3888	58.6519	0.6641	28.3260	483.5000	2461.5000
126.5412	62.5738	0.4016	29.2168	477.0000	2481.5000
126.6936	59.1165	0.4148	28.6593	462.0000	2477.0000
126.8460	58.9590	0.6607	27.9553	494.5000	2548.5000
126.9984	56.3495	0.5863	28.7473	466.5000	2434.2856
127.1508	56.4186	0.4206	29.1547	505.0000	2485.0000
127.3032	56.2584	0.5129	28.5694	471.4286	2406.5000
127.4556	59.7808	0.6441	30.1238	456.0000	2447.5000
127.6080	59.7099	0.5994	29.9268	463.0000	2490.5000
127.7604	64.0109	0.6035	30.1571	438.0000	2515.4285
127.9128	65.2836	0.8356	31.5020	454.5000	2432.0000
128.0652	68.1825	0.7750	32.4055	444.5000	2349.5000
128.2176	63.7133	0.8663	31.8387	421.5000	2424.5000
128.3700	63.6661	0.8640	32.2645	437.1429	2383.5000
128.5224	61.2542	0.9097	32.9541	451.5000	2485.5000
128.6748	60.4937	0.9146	31.8690	437.0000	2500.0000
128.8272	63.4586	0.8751	32.9068	434.0000	2410.8572
128.9796	67.9262	0.7901	34.2333	447.0000	2395.1111
129.1320	68.0247	0.8011	32.5113	455.0000	2426.0000
129.2844	67.2142	0.7989	32.3488	472.0000	2446.8572
129.4368	67.2000	0.7924	31.9944	461.0000	2385.5000
129.5892	66.6134	0.6121	30.1524	462.5000	2404.5000
129.7416	64.5879	0.8466	28.9604	478.2857	2463.5000
129.8940	64.1427	0.6006	30.4251	431.0000	2480.0000
130.0464	62.3920	0.3774	29.8985	483.0000	2477.0000
130.1988	62.0228	0.4257	29.7296	473.0000	2429.5000
130.3512	53.8949	0.9728	28.7943	455.5000	2416.0000
130.5036	55.1376	0.6971	28.4336	471.5000	2496.5000
130.6560	55.4730	0.5494	29.6887	447.0000	2419.5000
130.8084	58.6559	0.4340	30.7037	470.2857	2490.0000
130.9608	55.3372	0.4826	29.8729	473.5000	2469.5000
131.1132	53.7956	0.5916	30.2307	470.5000	2534.2856
131.2656	54.0773	0.7555	30.1504	444.5000	2432.5000
131.4180	59.9232	0.8875	29.3451	466.5000	2439.0000
131.5704	63.2435	0.8738	29.5923	468.5000	2496.5000
131.7228	61.1111	0.9055	30.7750	462.2857	2482.5000
131.8752	57.5703	0.9297	31.0326	459.5000	2558.5000
132.0276	55.1134	0.5943	31.5145	493.0000	2504.0000
132.1800	58.7562	0.4928	31.6986	497.3333	2523.5000
132.3324	60.8462	0.1932	32.0983	494.8571	2493.5000
132.4848	60.0979	0.0373	32.1698	470.5000	2543.5000
132.6372	57.2262	0.0091	30.9681	487.0000	2606.0000
132.7896	55.4762	0.0810	31.6648	476.5000	2542.2856
132.9420	55.7055	0.0334	31.7753	499.5000	2604.0000
133.0944	53.2935	0.1109	29.8667	485.0000	2582.5000
133.2468	55.0386	0.2476	29.8070	485.5000	2545.5000
133.3992	57.2452	0.2831	31.5185	530.8571	2510.0000
133.5516	59.8595	0.4208	30.0969	491.5000	2519.5000
133.7040	59.3700	0.5708	30.1553	470.0000	2557.7144
133.8564	60.1693	0.9189	29.8430	473.5000	2512.0000
134.0088	61.5451	0.8983	29.8619	507.5000	2542.0000
134.1612	63.3957	0.8681	28.3368	481.5000	2516.5000
134.3136	61.4184	0.8992	29.0269	461.7143	2475.0000
134.4660	58.3127	0.9409	29.0365	459.5000	2485.5000
134.6184	50.2439	1.0073	28.6980	469.5000	2464.0000
134.7708	50.4621	1.0049	27.7314	472.0000	2446.0000
134.9232	51.7181	0.9956	28.5699	497.5000	2382.0000
135.0756	56.6181	0.7617	29.2092	437.1429	2507.0000
135.2280	56.8295	0.4771	29.5284	490.5000	2515.0000
135.3804	56.3111	0.2973	30.0017	489.0000	2552.0000
135.5328	55.2047	0.2474	31.6642	486.5000	2560.0000
135.6852	55.1240	0.3449	30.9410	498.0000	2552.0000
135.8376	55.0733	0.4638	30.1800	490.0000	2561.5000
135.9900	54.7295	0.7177	28.7977	470.0000	2499.5000
136.1424	54.5631	0.7048	29.0059	481.7143	2523.0000
136.2948	55.3720	0.5735	28.5471	501.5000	2569.0000
136.4472	54.8652	0.4972	29.1019	487.0000	2519.5000
136.5996	55.1099	0.4334	29.6556	487.0000	2550.0000
136.7520	53.5081	0.4527	30.8260	497.0000	2566.5000
136.9044	52.6830	0.5090	30.7301	501.0000	2619.5000
137.0568	46.7656	0.9512	28.8637	491.0000	2572.0000
137.2092	53.7195	0.8307	29.1522	455.0000	2521.1428
137.3616	61.7020	0.9019	29.8569	463.0000	2477.5000
137.5140	68.2810	0.7726	29.5618	476.0000	2458.5000
137.6664	69.6063	0.6331	30.6090	461.5000	2505.5000
137.8188	69.0751	0.6940	30.7871	479.0000	2449.0000
137.9712	69.6652	0.6426	30.9374	467.0000	2452.5715
138.1236	71.4350	0.2694	30.7346	448.5000	2460.5000
138.2760	75.9836	-0.1236	30.7391	460.5000	2414.0000
138.4284	80.0796	-0.0771	31.4056	490.0000	2465.0000
138.5808	77.4396	-0.5234	31.2652	472.5714	2430.0000
138.7332	66.9559	-0.3289	31.0327	456.0000	2601.0000
138.8856	55.1151	-0.0742	30.1232	475.5000	2616.0000
139.0380	51.6314	0.0305	29.4937	479.5000	2543.5000
139.1904	49.5587	0.0156	27.9160	495.0000	2597.0000
139.3428	53.6929	-0.0755	27.7861	495.5000	2564.5000
139.4952	54.1880	-0.0358	28.2692	507.0000	2522.5000
139.6476	53.6978	0.1760	28.7237	515.5000	2594.0000
139.8000	51.2276	0.1657	29.8109	501.5000	2571.5000
139.9524	53.1558	0.1579	31.2952	483.5000	2622.2856
140.1048	52.1683	0.1295	31.0861	476.0000	2607.5000
140.2572	52.0916	0.2179	30.6367	508.0000	2607.0000
140.4096	48.7020	0.1769	28.9329	502.0000	2589.5000
140.5620	48.0187	0.1831	28.0239	531.5000	2595.0000
140.7144	47.9176	0.1704	27.9463	528.5714	2594.0000
140.8668	51.7747	0.1391	28.2789	489.0000	2591.5000
141.0192	56.0222	0.0290	29.5073	495.5000	2560.5715
141.1716	58.9528	0.1199	31.0284	486.0000	2575.0000
141.3240	59.6164	0.2444	32.0625	453.5000	2588.5000
141.4764	62.7761	0.1895	31.7132	474.5000	2557.5000
141.6288	61.0199	0.3872	29.5354	478.8571	2614.0000
141.7812	60.7272	0.1911	28.9503	439.0000	2608.0000
141.9336	61.8054	0.2021	29.3022	455.0000	2530.0000
142.0860	61.9941	0.1872	28.9544	469.5000	2590.0000
142.2384	62.2706	0.4209	29.3723	451.0000	2599.4285
142.3908	61.5698	0.1972	31.3773	489.5000	2571.5000
142.5432	61.3289	0.1827	31.6338	496.0000	2578.0000
142.6956	59.9964	0.1499	30.6854	486.5000	2554.5000
142.8480	58.0122	0.1009	31.5578	494.0000	2551.4285
143.0004	55.4671	0.1080	30.3800	493.0000	2601.0000
143.1528	56.3399	0.0974	30.8094	481.0000	2618.0000
143.3052	57.6670	0.1085	30.2516	483.0000	2567.0000
143.4576	57.1580	0.0364	31.0709	500.0000	2541.0000
143.6100	53.9502	0.2191	29.9347	484.5714	2541.5000
143.7624	51.0752	0.2681	29.1426	460.5000	2544.0000
143.9148	48.6381	0.4172	27.9291	487.5000	2561.0000
144.0672	51.1640	0.4361	28.4338	477.0000	2587.4285
144.2196	53.9228	0.3944	27.9356	484.0000	2541.0000
144.3720	53.7180	0.2956	28.1902	484.5000	2610.0000
144.5244	53.3834	0.3246	28.4702	501.1429	2546.0000
144.6768	53.8357	0.2799	30.5897	525.0000	2523.0000
144.8292	54.2649	0.3698	30.8262	530.5000	2558.5000
144.9816	54.8488	0.4856	30.8371	483.0000	2569.0000
145.1340	55.2831	0.5959	30.9808	507.0000	2612.5715
145.2864	56.3208	0.6593	31.0271	490.0000	2590.5000
145.4388	57.0873	0.7559	30.7322	465.0000	2539.0000
145.5912	54.0178	0.5133	30.2952	494.2857	2571.5000
145.7436	53.8357	0.6460	29.7345	481.0000	2585.5000
145.8960	56.2244	0.5298	29.7824	486.0000	2602.0000
146.0484	53.9152	0.6189	29.6958	484.0000	2560.0000
146.2008	48.9750	0.4193	29.3902	528.0000	2606.0000
146.3532	49.0612	0.3165	30.4563	499.5000	2594.0000
146.5056	51.0698	0.2763	31.0927	507.0000	2537.5000
146.6580	56.3653	0.2878	30.4537	511.4286	2591.5000
146.8104	58.4666	0.1401	30.4560	528.0000	2544.5000
146.9628	60.8055	0.2043	30.0609	418.5000	2575.0000
147.1152	55.3545	0.6856	29.2175	462.0000	2636.5715
147.2676	55.4705	0.8077	28.4513	464.5000	2671.0000
147.4200	66.6845	0.5824	29.8704	480.5000	2570.0000
147.5724	73.3877	0.4996	30.4640	440.0000	2430.5000
147.7248	74.5284	0.4695	31.2767	457.5000	2434.0000
147.8772	69.5142	0.2211	31.3227	459.4286	2437.0000
148.0296	67.6089	0.0116	32.9096	442.5000	2459.0000
148.1820	66.6995	-0.0485	32.2339	462.5000	2476.0000
148.3344	67.8193	0.1669	31.5155	460.5000	2483.4285
148.4868	71.7578	-0.1023	30.4035	432.0000	2457.0000
148.6392	75.1076	-0.1464	30.5042	431.5000	2457.0000
148.7916	76.3962	-0.3592	29.9718	450.0000	2475.5000
148.9440	75.7004	-0.3224	30.9527	445.1429	2428.0000
149.0964	70.6816	-0.2708	31.3659	474.0000	2430.0000
149.2488	65.2994	-0.0278	32.5109	478.0000	2435.5000
149.4012	62.9233	0.0819	31.1840	426.5000	2481.7144
149.5536	61.0655	0.1546	31.3436	475.5000	2559.5000
149.7060	63.6541	0.1047	30.9908	487.0000	2534.0000
149.8584	63.6166	0.1136	29.9029	470.5000	2582.5000
150.0108	61.3745	0.3510	29.3781	462.2857	2518.0000
150.1632	56.4854	0.3758	30.3922	467.5000	2551.0000
150.3156	54.8283	0.5142	29.6235	476.5000	2506.8572
150.4680	56.3715	0.4431	30.5810	439.0000	2585.0000
150.6204	60.3878	0.6065	30.2686	478.0000	2474.0000
150.7728	59.2777	0.2867	32.2188	494.8571	2533.5000
150.9252	54.2332	0.3532	31.7181	476.0000	2585.0000
151.0776	52.9535	0.2561	32.1534	490.5000	2578.0000
151.2300	51.0857	0.3209	30.5641	488.0000	2533.5000
151.3824	48.9267	0.3110	31.0539	494.5000	2574.8572
151.5348	47.7974	0.4027	28.3286	510.5000	2610.5000
151.6872	48.3186	0.4067	29.4290	486.0000	2574.5000
151.8396	53.3136	0.4445	28.6978	486.8571	2606.5000
151.9920	55.9508	0.3780	30.1492	490.0000	2576.5000
152.1444	60.5388	0.1487	31.2093	493.0000	2572.5715
152.2968	60.7399	0.2050	33.4560	495.5000	2506.5000
152.4492	58.5792	0.2857	33.0246	469.5000	2553.5000
152.6016	58.3330	0.4482	33.7206	459.5000	2629.5000
152.7540	60.0701	0.4084	33.0726	460.0000	2513.0000
152.9064	62.4175	0.8200	31.8858	478.5000	2548.0000
153.0588	59.6535	0.9360	31.6507	480.0000	2585.7144
153.2112	60.1578	0.9360	31.2567	487.0000	2600.0000
153.3636	61.6503	0.4714	32.1924	479.0000	2543.0000
153.5160	60.3365	0.4229	32.1609	502.5000	2541.0000
153.6684	57.3757	0.4383	30.8730	482.8571	2572.5000
153.8208	53.1782	0.3763	29.8969	484.0000	2561.0000
153.9732	53.2993	0.3955	28.8599	510.0000	2561.1428
154.1256	54.7534	0.4888	28.2964	520.5000	2513.5000
154.2780	54.3490	0.4106	28.1819	495.5000	2545.0000
154.4304	49.6937	0.4466	28.8494	482.5000	2584.0000
154.5828	52.8823	0.5173	29.6838	471.4286	2553.5000
154.7352	55.3540	0.2793	30.9506	476.0000	2522.0000
154.8876	57.9515	0.3147	31.2569	460.0000	2554.0000
155.0400	55.6342	0.5554	30.4286	470.0000	2594.0000
155.1924	56.6349	0.8312	28.9682	485.0000	2577.5000
155.3448	60.3851	0.3219	28.7412	481.0000	2446.8572
155.4972	57.9565	0.2467	28.9006	470.5000	2539.5000
155.6496	58.2976	0.2214	28.9781	499.4286	2544.0000
155.8020	58.6098	0.0997	28.1365	504.5000	2596.0000
155.9544	58.2849	0.1354	28.1460	491.5000	2654.0000
156.1068	59.1962	0.1200	29.3091	491.0000	2604.0000
156.2592	59.9371	0.0963	29.8714	472.0000	2584.5715
156.4116	60.8584	0.2083	29.6814	483.0000	2586.0000
156.5640	59.0801	0.4409	30.2684	484.5000	2608.5000
156.7164	56.5775	0.4666	31.3585	484.5714	2559.5000
156.8688	54.5315	0.7249	30.1467	487.5000	2545.0000
157.0212	49.3630	1.0128	29.2459	455.0000	2495.0000
157.1736	51.5700	0.9929	29.7069	480.0000	2569.1428
157.3260	55.2945	0.9677	30.1320	486.0000	2576.0000
157.4784	61.4982	0.9113	29.9977	446.0000	2545.0000
157.6308	62.7489	0.8797	29.7807	477.1429	2586.0000
157.7832	63.2795	0.6419	30.7723	484.0000	2521.5000
157.9356	63.1215	0.8189	29.9806	469.5000	2501.0000
158.0880	60.4413	0.9273	29.3749	489.5000	2437.1428
158.2404	52.2864	0.9971	28.4810	463.5000	2444.5000
158.3928	41.4691	1.0968	28.7514	468.0000	2487.5000
158.5452	46.8181	1.0381	29.3990	466.0000	2425.5000
158.6976	57.6375	0.8548	30.9665	471.5000	2403.0000
158.8500	64.2746	0.6853	32.4093	452.0000	2439.5000
159.0024	66.3249	0.3808	33.3637	438.6667	2419.5000
159.1548	62.9191	0.3763	32.8827	480.5000	2421.5000
159.3072	59.9157	0.3083	32.5595	479.4286	2447.0000
159.4596	60.2197	0.3132	31.5619	460.5000	2482.0000
159.6120	61.6877	0.3342	31.0102	456.0000	2464.5000
159.7644	59.5318	0.5225	31.5071	452.0000	2510.2856
159.9168	58.5566	0.7776	31.4380	459.0000	2552.0000
160.0692	61.8283	0.8958	30.1539	503.5000	2532.0000
160.2216	62.1881	0.6936	31.4170	484.0000	2543.4285
160.3740	60.0661	0.7746	31.4563	441.7143	2472.5000
160.5264	58.6395	0.2945	31.2616	505.5000	2488.5000
160.6788	57.6031	0.1132	31.4617	465.5000	2505.1428
160.8312	54.2982	0.1402	30.6838	485.0000	2606.5000
160.9836	52.8610	0.0861	30.7257	464.5000	2556.0000
161.1360	51.7686	0.1365	31.0691	471.5000	2554.5000
161.2884	51.2487	0.1950	31.3927	458.2857	2640.0000
161.4408	48.8023	0.3559	30.6860	459.5000	2602.0000
161.5932	52.8929	0.3563	30.1115	454.5000	2602.0000
161.7456	53.9688	0.3000	30.2305	476.5000	2559.4285
161.8980	53.9228	0.2203	29.5666	475.5000	2608.0000
162.0504	54.5460	0.0945	28.9140	496.5000	2613.5000
162.2028	58.5678	-0.0063	28.9997	472.0000	2509.0000
162.3552	58.2463	0.0274	30.3943	477.7143	2595.5000
162.5076	54.2857	0.1971	30.3959	481.0000	2672.5000
162.6600	54.6275	0.2447	30.1353	473.0000	2580.0000
162.8124	54.7499	0.4909	31.1630	514.5000	2528.0000
162.9648	50.5027	0.3676	30.7322	481.0000	2629.0000
163.1172	52.5534	0.2325	31.3322	453.0000	2591.5000
163.2696	54.4147	0.2247	30.2982	466.8571	2589.0000
163.4220	55.7065	0.1108	31.1568	477.0000	2609.5000
163.5744	55.2612	0.1299	30.8154	501.5000	2605.0000
163.7268	54.2085	0.2007	32.2263	496.0000	2588.5715
163.8792	52.9035	0.3032	31.9596	518.0000	2679.5000
164.0316	53.8067	0.3852	33.1696	465.5000	2556.5000
164.1840	50.1942	0.6218	31.3612	518.8571	2589.5000
164.3364	51.2211	0.4956	30.7938	479.0000	2583.5000
164.4888	47.0379	0.5733	29.2557	481.0000	2588.5000
164.6412	49.6859	0.5257	28.7805	509.7778	2605.5000
164.7936	49.0208	0.4195	28.6127	504.0000	2615.5000
164.9460	53.3891	0.2952	29.1164	508.5000	2589.0000
165.0984	53.2114	0.3962	30.4433	486.0000	2590.5000
165.2508	56.1684	0.4074	31.0074	514.0000	2579.4285
165.4032	52.8393	0.5803	31.2180	484.5000	2549.5000
165.5556	53.8247	0.7361	31.5153	499.0000	2571.5000
165.7080	55.3480	0.6468	32.5104	474.0000	2524.5000
165.8604	57.0917	0.7343	32.2406	505.7143	2593.0000
166.0128	54.9656	0.7406	32.0327	478.5000	2610.5000
166.1652	56.6818	0.6292	32.4573	488.5000	2532.0000
166.3176	52.8779	0.6908	32.1164	499.5000	2506.0000
166.4700	51.1238	0.9949	31.4667	514.5000	2489.1428
166.6224	56.1561	0.6961	31.2524	500.5000	2453.0000
166.7748	59.4457	0.7388	31.3813	489.0000	2600.0000
166.9272	59.1319	0.4870	31.5493	484.5714	2548.5000
167.0796	59.6844	0.4655	30.7320	473.5000	2575.5000
167.2320	57.4633	0.4340	31.8624	459.5000	2488.0000
167.3844	62.5099	0.3171	32.6066	453.5000	2499.5000
167.5368	64.9248	0.3035	32.6933	479.5000	2459.5000
167.6892	66.7627	0.6043	33.0781	450.5000	2517.0000
167.8416	63.3913	0.5571	34.4951	464.5714	2509.5000
167.9940	66.4695	0.4876	33.9111	478.5000	2494.0000
168.1464	64.8440	0.7617	33.1328	466.0000	2490.5000
168.2988	62.1183	0.8897	33.8769	448.5000	2487.5000
168.4512	59.1421	0.9367	32.9885	452.5000	2479.0000
168.6036	59.1356	0.9485	32.7684	466.0000	2466.2856
168.7560	61.1962	0.9250	32.2242	484.5000	2500.0000
168.9084	57.8537	0.9532	32.7092	470.0000	2460.0000
169.0608	60.4658	0.9269	31.6633	486.2857	2474.5000
169.2132	59.8675	0.9357	32.2270	495.0000	2482.5000
169.3656	63.5597	0.5736	32.5421	456.0000	2525.0000
169.5180	63.4560	0.4029	32.1164	454.5000	2509.5000
169.6704	65.2458	0.5069	31.9835	456.0000	2520.5715
169.8228	64.0157	0.4772	31.8098	425.0000	2551.5000
169.9752	63.6013	0.2894	32.0070	482.0000	2480.5000
170.1276	59.8463	0.8069	31.1211	479.5000	2505.0000
170.2800	59.3381	0.9320	30.7825	440.0000	2483.0000
170.4324	61.7863	0.6389	31.9241	475.5555	2493.0000
170.5848	61.0687	0.9058	31.6135	479.5000	2512.0000
170.7372	56.6469	0.9567	31.2033	443.4286	2505.0000
170.8896	58.7606	0.9353	30.5986	441.0000	2512.5000
171.0420	60.9546	0.9074	31.0293	474.0000	2479.4285
171.1944	62.5579	0.8891	30.6334	472.0000	2544.5000
171.3468	64.1629	0.8099	30.0839	446.5000	2487.0000
171.4992	64.4605	0.5008	30.6390	454.5000	2482.0000
171.6516	61.2347	0.5107	30.7061	448.0000	2522.5000
171.8040	59.9256	0.4628	30.3178	473.1429	2459.5000
171.9564	57.8315	0.7857	29.2280	458.0000	2482.5000
172.1088	57.2508	0.7511	29.6955	449.0000	2520.0000
172.2612	53.8104	0.9750	29.5542	459.5000	2499.4285
172.4136	62.1084	0.8914	30.3911	464.0000	2490.0000
172.5660	67.0182	0.8175	32.9842	455.5000	2423.0000
172.7184	73.2210	0.6075	34.8513	453.7143	2504.5000
172.8708	69.2744	0.7511	33.9956	490.5000	2491.5000
173.0232	71.4452	0.6818	34.4095	450.5000	2495.5000
173.1756	67.9321	0.7959	35.3813	463.5000	2420.0000
173.3280	68.2009	0.7709	32.7731	487.5000	2492.0000
173.4804	61.2311	0.9023	31.9501	446.0000	2534.5000
173.6328	60.3770	0.7352	31.7639	449.0000	2516.0000
173.7852	58.2420	0.3783	32.3971	485.5000	2538.5000
173.9376	61.6235	0.3766	29.9567	473.5000	2613.5000
174.0900	62.4968	0.1143	30.4311	494.5000	2554.5000
174.2424	61.6528	-0.0813	29.9019	473.7143	2621.5000
174.3948	57.5023	-0.0143	30.4013	512.5000	2536.0000
174.5472	55.2956	-0.0169	30.1961	482.0000	2575.5000
174.6996	53.1354	-0.0584	31.6849	483.5000	2595.4285
174.8520	54.0549	-0.1541	31.9506	485.5000	2530.5000
175.0044	53.9478	-0.0331	31.8400	481.5000	2608.0000
175.1568	54.1399	-0.0595	31.8066	520.5714	2567.0000
175.3092	56.0535	-0.1202	31.2307	513.0000	2608.5000
175.4616	55.0670	-0.0250	30.6890	475.0000	2575.5000
175.6140	52.1079	0.2342	30.1083	511.5000	2553.0000
175.7664	50.0484	0.2325	30.9079	479.5000	2607.4285
175.9188	52.7174	0.3141	31.1668	494.0000	2548.0000
176.0712	58.9434	0.4312	31.3834	516.0000	2534.5000
176.2236	57.5416	0.5608	29.5223	472.0000	2539.4285
176.3760	55.1300	0.5337	30.6012	537.1429	2627.0000
176.5284	55.2123	0.4663	30.1204	545.0000	2571.0000
176.6808	56.2550	0.3305	29.9505	504.5000	2528.5000
176.8332	55.1562	0.2704	30.4143	496.5000	2668.0000
176.9856	54.8100	0.1849	30.8350	486.5000	2627.4285
177.1380	57.0317	0.1809	30.3357	475.0000	2694.0000
177.2904	56.0013	0.1479	30.4050	493.5000	2588.5000
177.4428	56.8959	0.0648	31.3892	483.0000	2518.0000
177.5952	51.6707	0.2496	29.6338	469.1429	2584.5000
177.7476	54.3051	0.2626	30.5141	510.5000	2555.0000
177.9000	53.5130	0.0616	31.5970	524.0000	2542.5000
178.0524	52.1901	0.1685	31.7527	480.0000	2594.5000
178.2048	52.4515	0.1235	32.0707	506.0000	2641.5000
178.3572	54.8070	0.0379	33.5385	462.0000	2563.0000
178.5096	59.1806	-0.1618	32.0711	512.0000	2636.0000
178.6620	62.8145	-0.1451	31.2714	498.5000	2554.5000
178.8144	64.9450	-0.3490	31.1100	478.0000	2603.0000
178.9668	61.9919	-0.0753	30.7787	489.0000	2605.5000
179.1192	58.2048	0.0695	29.1616	490.8571	2533.0000
179.2716	56.6518	0.0468	29.6915	464.0000	2598.0000
179.4240	56.4148	0.0251	29.2503	497.0000	2633.5000
179.5764	55.7814	0.0584	28.8791	481.0000	2540.5715
179.7288	54.8682	0.1299	28.5242	509.5000	2653.0000
179.8812	54.2285	0.1109	30.2971	505.5000	2612.5000
180.0336	57.3931	0.0348	30.8327	496.0000	2621.5000
180.1860	54.4049	0.1109	30.5778	509.7143	2597.0000
180.3384	54.5138	0.1194	30.3154	491.0000	2607.0000
180.4908	52.0522	0.2255	30.6031	480.5000	2598.5000
180.6432	55.8577	0.3428	29.0544	503.5000	2646.8572
180.7956	62.0436	0.8897	27.9432	485.5000	2514.0000
180.9480	67.3515	0.7874	29.5778	492.5000	2436.5000
181.1004	62.7714	0.8872	29.7454	471.5000	2494.5000
181.2528	47.2274	1.0371	29.6827	462.8571	2563.0000
181.4052	53.9983	0.9519	29.7278	465.5000	2588.0000
181.5576	57.7024	0.5870	31.8480	468.5000	2435.0000
181.7100	60.7470	0.4198	31.1855	470.0000	2534.0000
181.8624	53.2303	0.3708	31.6289	462.2857	2559.5000
182.0148	52.7529	0.1856	31.4235	502.0000	2589.1428
182.1672	51.3675	0.2213	31.4261	485.0000	2578.5000
182.3196	50.3584	0.2990	30.6086	497.0000	2578.5000
182.4720	47.2595	0.3809	30.6135	476.0000	2575.0000
182.6244	46.2412	0.4056	30.5396	495.0000	2591.5000
182.7768	50.5074	0.3693	30.2957	509.0000	2610.0000
182.9292	52.3399	0.2842	30.8574	505.1429	2566.5000
183.0816	54.3210	0.1943	30.6417	511.5000	2581.0000
183.2340	53.5991	0.2052	29.7788	444.0000	2498.5000
183.3864	52.6586	0.2394	30.4191	499.5000	2510.2856
183.5388	52.6866	0.2440	30.8417	470.5000	2496.5000
183.6912	54.3524	0.3555	30.3435	493.0000	2507.5000
183.8436	55.2111	0.3605	29.2999	498.8571	2556.5000
183.9960	50.3805	0.5416	30.2238	484.0000	2602.0000
184.1484	47.5791	0.5703	28.8901	485.5000	2561.5000
184.3008	47.5605	0.6279	29.0708	500.5000	2528.0000
184.4532	51.9959	0.4313	30.5374	527.0000	2509.1428
184.6056	56.0065	0.3792	32.4226	523.0000	2588.0000
184.7580	56.5848	0.5058	31.1270	499.0000	2578.5000
184.9104	58.0240	0.5932	31.2486	493.0000	2638.0000
185.0628	53.4313	0.5972	30.9625	504.5000	2636.0000
185.2152	56.5933	0.4974	30.8247	462.2857	2580.0000
185.3676	54.3814	0.5399	29.9693	486.5000	2528.0000
185.5200	61.2785	0.2304	30.5595	474.0000	2583.5000
185.6724	63.8131	0.1909	30.7307	487.0000	2521.5000
185.8248	61.0786	0.4864	29.9479	453.5000	2540.0000
185.9772	54.6210	0.7808	29.1571	450.5000	2533.0000
186.1296	59.7617	0.7852	30.3511	467.0000	2504.5000
186.2820	73.4751	0.5872	31.1502	468.0000	2476.5000
186.4344	83.0805	0.0389	32.1633	438.0000	2401.5000
186.5868	87.8583	-0.2637	33.8029	425.0000	2416.5000
186.7392	81.8538	0.1107	34.1516	431.5000	2390.0000
186.8916	75.5600	0.4854	33.7019	445.0000	2429.5000
187.0440	68.4409	0.5850	33.9638	446.0000	2356.0000
187.1964	63.6201	0.8678	32.8771	442.5000	2340.0000
187.3488	63.1474	0.6351	31.9317	476.0000	2481.5000
187.5012	61.7819	0.8968	31.7872	437.5000	2462.0000
187.6536	65.4131	0.8319	32.5395	417.1429	2526.0000
187.8060	72.9432	0.3578	33.2118	442.5000	2448.0000
187.9584	81.9191	-0.1010	34.3572	433.0000	2336.5000
188.1108	84.4805	-0.0810	36.3360	428.5000	2442.5000
188.2632	82.3307	-0.3020	36.9634	444.5000	2388.5715
188.4156	85.0416	-0.5277	36.0156	418.0000	2388.5000
188.5680	82.4197	-0.2683	35.7498	441.5000	2388.0000
188.7204	74.6915	0.2448	36.2989	441.5000	2381.0000
188.8728	71.7337	0.4640	35.1014	418.5000	2443.0000
189.0252	71.3251	0.6700	33.6015	464.0000	2421.5000
189.1776	71.7888	0.6528	34.5028	413.0000	2453.0000
189.3300	68.2699	0.5742	35.8514	421.5000	2467.5000
189.4824	72.1868	0.2026	36.2208	424.0000	2400.0000
189.6348	74.7466	0.0396	35.0574	432.5000	2390.5000
189.7872	75.9603	-0.1910	34.7226	424.0000	2372.5000
189.9396	72.2881	0.2217	33.6833	452.0000	2478.5000
190.0920	68.1524	0.4572	32.7714	459.0000	2364.5000
190.2444	63.5080	0.5417	31.5860	441.5000	2502.0000
190.3968	56.7051	0.7634	30.3407	455.0000	2455.0000
190.5492	56.1214	0.8416	30.7664	475.0000	2421.1428
190.7016	55.1865	0.5292	31.4914	444.5000	2530.5000
190.8540	55.6858	0.7379	30.4322	460.0000	2471.0000
191.0064	59.8876	0.7538	30.9310	514.5000	2488.5000
191.1588	61.8032	0.4501	32.9367	481.5000	2433.5000
191.3112	63.3468	0.1652	32.6712	451.4286	2457.5000
191.4636	58.4721	0.5500	31.5185	458.5000	2588.0000
191.6160	58.6926	0.6052	30.9689	471.5000	2560.0000
191.7684	63.3618	0.4621	30.7919	484.5000	2543.0000
191.9208	62.1768	0.2642	30.6753	469.5000	2565.0000
192.0732	58.4395	0.4851	30.3276	442.0000	2606.0000
192.2256	55.5943	0.4260	30.4183	495.5000	2580.0000
192.3780	56.0428	0.3385	30.3711	481.0000	2600.5000
192.5304	56.6712	0.2111	30.5232	453.5000	2625.0000
192.6828	58.3503	0.3609	29.5165	489.5000	2558.5000
192.8352	57.4912	0.2989	29.4842	469.5000	2656.5715
192.9876	59.0421	0.2401	29.7129	499.5000	2689.5000
193.1400	58.7426	0.1738	29.6974	484.0000	2595.0000
193.2924	57.3479	0.3034	28.6746	472.5000	2618.5000
193.4448	56.1577	0.2961	29.3392	472.0000	2577.5000
193.5972	55.4123	0.3531	29.9692	483.5000	2613.5000
193.7496	56.2940	0.1545	30.0927	484.5000	2638.5000
193.9020	56.4405	0.1517	31.7102	496.5000	2653.7144
194.0544	60.7727	0.2288	33.0742	467.5000	2646.5000
194.2068	60.0281	0.4640	32.9082	483.5000	2543.0000
194.3592	58.2230	0.4803	33.2398	509.5000	2639.5000
194.5116	57.1212	0.9457	32.4623	485.5000	2594.5000
194.6640	62.8218	0.8968	31.9931	485.7143	2616.5000
194.8164	64.6211	0.8499	32.4576	465.5000	2555.0000
194.9688	63.9541	0.6920	33.1333	454.0000	2547.0000
195.1212	62.2014	0.6772	32.2715	473.5000	2546.2856
195.2736	63.2010	0.8705	31.9989	432.0000	2545.5000
195.4260	65.3102	0.8346	32.2658	430.0000	2597.5000
195.5784	67.3583	0.7893	31.2553	456.0000	2532.0000
195.7308	69.7731	0.7350	30.4464	439.0000	2458.5000
195.8832	69.5495	0.7631	31.3296	434.2857	2371.0000
196.0356	71.8449	0.6812	33.5391	419.0000	2389.0000
196.1880	72.1874	0.6542	34.7711	444.5000	2467.5000
196.3404	77.8169	0.4022	36.3295	445.5000	2435.0000
196.4928	79.1880	0.3001	36.3478	460.0000	2433.0000
196.6452	78.0464	0.3659	35.2414	425.5000	2506.0000
196.7976	75.4753	0.5011	33.5333	436.0000	2445.7144
196.9500	73.3586	0.6028	32.9946	470.5000	2432.5000
197.1024	68.9822	0.7515	32.0236	424.0000	2459.5000
197.2548	68.7410	0.7573	31.6013	438.0000	2499.0000
197.4072	69.2389	0.7465	32.1678	427.4286	2470.0000
197.5596	69.0575	0.7505	31.2078	462.0000	2446.5000
197.7120	66.4159	0.8190	30.3524	466.5000	2436.5000
197.8644	65.8771	0.8372	30.4566	443.0000	2451.5000
198.0168	71.1673	0.7014	31.9634	468.0000	2407.4285
198.1692	73.9753	0.5740	32.1208	461.5000	2460.0000
198.3216	72.0791	0.6497	33.5467	451.5000	2506.0000
198.4740	72.3232	0.6294	33.2014	436.0000	2493.5000
198.6264	69.7695	0.3348	33.5886	420.5714	2376.5000
198.7788	68.0729	0.5797	33.1171	434.5000	2441.0000
198.9312	64.4983	0.7779	31.3907	466.0000	2508.0000
199.0836	71.5155	0.6632	31.1183	448.0000	2442.8572
199.2360	73.8349	0.5714	32.1072	457.5000	2403.0000
199.3884	73.8227	0.5662	32.7813	475.5000	2493.0000
199.5408	70.8175	0.3429	33.0800	482.5000	2463.0000
199.6932	70.8989	0.3389	33.5722	500.0000	2446.5000
199.8456	69.7692	0.3243	34.1365	479.4286	2487.4285
199.9980	69.8863	0.7152	32.9426	457.7143	2429.5000
200.1504	67.5744	0.0893	32.4230	436.5000	2505.5000
200.3028	65.8886	0.8190	30.5298	434.0000	2473.0000
200.4552	66.1070	0.7043	30.5101	456.0000	2454.5000
200.6076	64.9633	0.5944	29.7125	445.5000	2513.7144
200.7600	67.1449	0.6971	29.6160	437.5000	2432.0000
200.9124	68.9543	0.6165	31.6077	457.5000	2447.0000
201.0648	68.2495	0.7769	31.1445	472.5000	2488.5000
201.2172	68.0456	0.7909	32.5042	486.2857	2491.5000
201.3696	66.7252	0.8230	33.0022	467.5000	2483.0000
201.5220	65.4637	0.8356	33.5999	460.0000	2500.0000
201.6744	64.2076	0.8564	33.0476	438.0000	2462.0000
201.8268	63.8159	0.8599	34.1702	463.5000	2505.1428
201.9792	66.5341	0.5128	33.2193	463.5000	2536.8889
202.1316	70.3936	0.3715	32.4982	443.0000	2460.0000
202.2840	69.7081	0.6710	30.0509	456.5000	2549.0000
202.4364	66.8174	0.8061	29.9099	472.5000	2542.5000
202.5888	68.1100	0.6190	29.6826	483.0000	2518.0000
202.7412	68.7319	0.6228	31.8238	468.5714	2437.5000
202.8936	63.1611	0.5507	32.9770	459.5000	2508.5000
203.0460	55.7280	0.8103	33.5306	459.0000	2546.5000
203.1984	53.8700	0.7075	33.2878	494.0000	2530.5000
203.3508	51.4224	0.9280	32.7410	439.5000	2456.5715
203.5032	58.4060	0.8188	32.5320	479.5000	2510.5000
203.6556	56.6135	0.9501	32.1711	459.0000	2517.0000
203.8080	62.8950	0.4501	32.1384	450.5000	2601.0000
203.9604	61.9674	0.4310	32.3145	488.0000	2500.5000
204.1128	61.8948	0.5931	30.6333	462.8571	2575.5000
204.2652	60.3180	0.7518	29.6317	461.5000	2543.0000
204.4176	61.2658	0.6954	30.6967	502.5000	2540.0000
204.5700	63.6548	0.8662	30.3263	469.0000	2457.1428
204.7224	62.5911	0.8829	30.7728	453.5000	2543.5000
204.8748	61.1532	0.7069	33.0529	467.0000	2503.0000
205.0272	60.1613	0.6464	32.7553	482.5000	2500.5000
205.1796	58.8397	0.8190	29.8409	456.0000	2497.5000
205.3320	61.3847	0.8458	30.8435	466.8571	2579.5000
205.4844	66.2917	0.7586	30.1374	460.0000	2486.5000
205.6368	64.7595	0.6297	29.8114	466.5000	2555.0000
205.7892	66.9901	0.4256	30.8705	457.5000	2528.0000
205.9416	67.0063	0.3297	32.6815	442.0000	2362.0000
206.0940	65.9258	0.1266	32.0744	481.0000	2436.0000
206.2464	61.7930	0.3186	32.4268	472.0000	2419.5000
206.3988	61.9451	0.5058	32.2946	458.5000	2513.0000
206.5512	62.8209	0.3115	31.6864	451.4286	2514.5000
206.7036	63.3474	0.3257	30.7909	478.0000	2498.5000
206.8560	61.8723	0.3814	30.4625	503.0000	2521.5000
207.0084	61.4030	0.2938	30.3009	450.5000	2505.0000
207.1608	64.3122	0.2149	29.5212	457.0000	2503.5000
207.3132	64.9039	0.6636	28.9296	497.0000	2486.0000
207.4656	63.6743	0.6646	28.7102	467.0000	2484.0000
207.6180	62.3258	0.8873	30.2475	451.0000	2429.0000
207.7704	64.6916	0.8622	29.9652	473.5000	2400.0000
207.9228	61.5842	0.9097	31.9081	475.5000	2399.5000
208.0752	61.0377	0.9129	32.5697	483.0000	2534.5000
208.2276	58.6192	0.9340	33.4281	440.5714	2493.5000
208.3800	62.3823	0.8882	30.9087	458.0000	2568.5000
208.5324	64.2604	0.3715	32.4725	454.5000	2500.5000
208.6848	63.9946	0.2056	32.3911	434.5000	2492.0000
208.8372	63.8637	0.2247	31.9373	471.0000	2530.5000
208.9896	64.8848	0.5401	31.4673	472.0000	2549.7144
209.1420	69.0294	0.4631	33.4252	462.0000	2490.0000
209.2944	66.7742	0.8013	33.1974	480.0000	2485.0000
209.4468	68.4434	0.5815	32.8871	436.0000	2517.5000
209.5992	68.7799	0.4254	34.6585	478.0000	2434.5000
209.7516	68.8230	0.3101	34.6565	456.5714	2561.0000
209.9040	66.5866	0.8174	32.5295	458.5000	2523.5000
210.0564	67.9082	0.6724	31.9897	479.0000	2482.5000
210.2088	64.5583	0.6287	33.4695	450.5000	2441.0000
210.3612	62.1121	0.8712	32.3467	441.5000	2514.8572
210.5136	62.9714	0.8790	31.0507	449.0000	2499.0000
210.6660	66.7683	0.8128	31.4108	466.0000	2525.5000
210.8184	66.9612	0.8307	32.3675	457.5000	2453.5000
210.9708	68.1505	0.7825	30.7651	452.5000	2473.0000
211.1232	68.7316	0.7668	31.2447	456.0000	2448.0000
211.2756	69.2833	0.7403	32.1569	464.5000	2491.5000
211.4280	70.0402	0.7146	33.0912	467.4286	2474.0000
211.5804	69.5516	0.7415	31.7574	447.0000	2426.5000
211.7328	70.9926	0.6806	31.7441	476.5000	2471.0000
211.8852	69.5001	0.7591	31.3748	438.0000	2422.0000
212.0376	67.7527	0.7953	30.5987	462.5000	2500.5000
212.1900	64.5792	0.8520	30.5034	448.5000	2459.5000
212.3424	67.4665	0.7827	31.7841	450.0000	2474.2856
212.4948	68.7688	0.7506	33.4296	457.0000	2507.5000
212.6472	69.8952	0.5304	33.5354	459.0000	2519.5000
212.7996	69.2732	0.7342	33.5420	442.5000	2517.0000
212.9520	68.5385	0.7625	33.9737	456.5000	2446.0000
213.1044	70.6281	0.7049	33.9605	442.8571	2515.0000
213.2568	71.7977	0.6521	34.5344	433.5000	2484.5000
213.4092	69.9577	0.7250	34.4474	434.5000	2479.0000
213.5616	68.8794	0.7570	34.4453	434.5000	2439.0000
213.7140	64.3982	0.8600	34.0570	444.5000	2435.5000
213.8664	68.7866	0.7566	33.3257	445.0000	2508.0000
214.0188	68.4908	0.7687	32.6200	433.5000	2475.5000
214.1712	75.7923	0.4765	32.5752	467.0000	2537.5000
214.3236	74.5070	0.5362	31.9073	461.0000	2481.0000
214.4760	72.3494	0.6306	32.2263	449.7143	2472.0000
214.6284	68.4078	0.7710	32.9969	417.5000	2476.0000
214.7808	69.0620	0.7526	32.3108	475.0000	2440.0000
214.9332	75.3490	0.5106	33.8091	446.0000	2454.5000
215.0856	74.3237	0.5726	33.6578	428.0000	2438.0000
215.2380	72.1810	0.6616	33.8136	462.5000	2453.5000
215.3904	70.1683	0.7081	34.1039	456.5000	2405.1428
215.5428	69.5493	0.7250	35.4514	444.5000	2402.0000
215.6952	70.4645	0.6945	34.2196	447.0000	2468.0000
215.8476	72.3853	0.6150	34.7026	431.5000	2439.0000
216.0000	75.1489	0.0188	34.4204	460.5714	2467.5000
216.1524	71.8103	0.6485	33.3462	427.0000	2460.5000
216.3048	72.1962	0.6374	33.3444	442.0000	2555.0000
216.4572	74.2977	0.5004	33.1366	444.5000	2424.0000
216.6096	76.2769	0.1274	33.6453	427.0000	2461.0000
216.7620	67.8416	0.7789	31.5396	483.0000	2402.0000
216.9144	63.9456	0.8635	31.5971	440.5000	2394.8572
217.0668	65.0753	0.8508	30.7400	456.5000	2399.0000
217.2192	74.8026	0.5587	33.2072	425.0000	2331.0000
217.3716	80.8589	0.2079	35.3542	404.5000	2403.0000
217.5240	79.4552	0.2897	35.4306	429.7143	2408.5000
217.6764	75.8525	0.4804	34.7113	425.0000	2450.0000
217.8288	74.4559	0.2693	35.8572	426.0000	2420.5000
217.9812	75.5985	-0.0887	36.3945	409.5000	2363.0000
218.1336	75.1728	0.0846	35.0963	419.5000	2465.0000
218.2860	75.6556	0.0496	35.5305	452.5000	2427.0000
218.4384	77.2011	0.4217	36.9521	441.0000	2442.5000
218.5908	76.5086	0.4658	37.6728	456.5000	2525.5000
218.7432	75.4841	0.5205	36.0597	445.5000	2392.5715
218.8956	72.6736	0.6373	35.2682	455.0000	2449.5000
219.0480	68.4526	0.7900	36.2737	457.5000	2412.5000
219.2004	73.8747	0.5970	36.2125	447.0000	2459.5000
219.3528	77.3244	0.4114	35.1698	448.5714	2378.5000
219.5052	76.1661	0.4772	33.7075	413.5000	2456.5000
219.6576	70.9114	0.6828	33.3837	474.5000	2405.0000
219.8100	70.0905	0.5592	33.0498	441.5000	2433.0000
219.9624	70.4616	0.7288	32.1113	453.0000	2405.0000
220.1148	71.0210	0.7159	32.8276	457.5000	2433.0000
220.2672	68.6876	0.7811	34.4232	455.0000	2461.0000
220.4196	69.7547	0.7454	33.5944	451.5000	2418.5000
220.5720	69.0156	0.7563	34.0603	429.0000	2433.7144
220.7244	68.8019	0.7528	33.0039	456.0000	2464.5000
220.8768	71.2500	0.3413	32.4848	444.0000	2499.5000
221.0292	70.5579	0.5549	30.1233	466.0000	2542.5000
221.1816	71.2208	0.3592	31.2999	431.4286	2495.0000
221.3340	66.2063	0.3241	31.9025	470.5000	2480.0000
221.4864	65.8086	0.8263	32.7084	443.0000	2483.5000
221.6388	66.3744	0.8168	34.4576	453.0000	2446.5000
221.7912	68.2397	0.7704	36.2645	445.5000	2449.5000
221.9436	64.9155	0.8432	34.2757	451.0000	2520.5000
222.0960	67.4496	0.8007	34.2114	465.5000	2493.1428
222.2484	71.4323	0.6774	34.6032	435.0000	2386.5000
222.4008	74.9128	0.5368	34.9079	471.0000	2359.0000
222.5532	70.6123	0.6937	34.1408	420.5000	2449.5000
222.7056	70.9942	0.6821	34.4877	433.5000	2454.0000
222.8580	72.5657	0.4512	33.9664	431.5000	2394.0000
223.0104	70.9723	0.3445	31.8080	429.1429	2433.0000
223.1628	71.0290	0.4593	31.5611	452.5000	2422.5000
223.3152	68.7811	0.7667	30.6504	436.0000	2403.0000
223.4676	66.6867	0.8238	31.7123	464.0000	2457.0000
223.6200	64.6810	0.8501	31.6274	450.0000	2404.0000
223.7724	65.7774	0.8404	32.0315	464.5000	2352.0000
223.9248	64.5511	0.8616	31.1568	426.5000	2405.7144
224.0772	66.8812	0.8160	31.7267	449.5000	2360.5000
224.2296	68.9842	0.7632	31.7716	463.0000	2426.5000
224.3820	70.8769	0.6981	32.4372	437.5000	2371.5000
224.5344	71.2205	0.6711	33.8276	423.0000	2482.0000
224.6868	73.3015	0.4706	35.0754	415.4286	2400.0000
224.8392	70.8558	0.6041	34.6501	451.5000	2376.5000
224.9916	68.5549	0.6800	33.3093	422.5000	2458.0000
225.1440	69.1001	0.7392	33.2677	475.5000	2399.5000
225.2964	72.2465	0.6325	32.7346	429.5000	2398.5000
225.4488	71.9735	0.6456	33.3540	448.0000	2388.5000
225.6012	69.3875	0.7400	34.9432	408.5000	2432.0000
225.7536	78.4484	0.3365	35.3447	420.5000	2387.0000
225.9060	87.3035	-0.2253	36.4793	421.0000	2295.5000
226.0584	101.4403	0.3093	36.9424	404.5000	2227.5000
226.2108	90.4135	-0.3711	36.9959	416.0000	2269.0000
226.3632	85.4482	-0.1014	36.1930	401.0000	2368.5000
226.5156	84.7594	-0.0518	39.2552	400.0000	2307.5000
226.6680	79.3310	0.3018	38.2669	395.0000	2246.5000
226.8204	72.4834	0.6383	35.4666	427.0000	2407.0000
226.9728	72.8098	0.6218	33.7339	449.5000	2302.0000
227.1252	76.9696	0.4279	33.7651	443.5000	2290.0000
227.2776	69.4417	0.7344	31.1754	445.0000	2391.0000
227.4300	63.2971	0.8720	30.8644	450.5000	2407.4285
227.5824	62.2696	0.8937	32.9501	443.0000	2394.0000
227.7348	64.5132	0.8670	33.8033	438.5000	2392.0000
227.8872	64.4819	0.8569	34.2198	466.0000	2421.5000
228.0396	65.1978	0.8477	34.9020	454.0000	2502.0000
228.1920	64.1434	0.8590	33.6623	464.5000	2444.5000
228.3444	64.0176	0.7958	32.6349	469.5000	2480.0000
228.4968	63.2575	0.0406	32.6912	483.0000	2467.0000
228.6492	63.8229	0.0039	31.6283	454.8571	2520.5000
228.8016	65.6735	-0.0534	31.1525	455.0000	2475.0000
228.9540	67.6973	0.0658	31.0584	451.5000	2456.5000
229.1064	68.9355	0.0576	31.3088	481.0000	2475.5000
229.2588	68.1799	0.3377	32.3988	466.5000	2475.5000
229.4112	67.0465	0.7845	31.6864	458.0000	2482.8572
229.5636	64.0961	0.7116	31.9357	435.0000	2459.0000
229.7160	63.4804	0.6354	32.1901	469.5000	2470.5000
229.8684	62.4117	0.5356	32.3054	452.0000	2525.5000
230.0208	64.0746	0.5621	31.1598	472.0000	2444.5000
230.1732	62.0993	0.6839	30.6340	463.0000	2431.5000
230.3256	65.3000	0.4927	32.3359	433.7143	2495.5000
230.4780	68.9627	0.6273	31.7632	476.0000	2484.5000
230.6304	73.7121	0.1829	31.3010	456.0000	2412.5000
230.7828	69.1781	0.5588	30.4602	433.5000	2481.5000
230.9352	65.2839	0.4358	30.9919	458.0000	2553.1428
231.0876	64.3572	0.4418	30.8536	452.0000	2564.0000
231.2400	61.5285	0.3594	30.8104	478.5000	2504.0000
231.3924	59.7165	0.5670	31.4846	509.5000	2463.5000
231.5448	60.3445	0.9179	31.1706	478.0000	2557.0000
231.6972	62.4155	0.8854	32.0343	451.5000	2449.5000
231.8496	62.9424	0.8859	32.2345	456.5714	2535.0000
232.0020	61.9099	0.7694	32.9632	440.0000	2514.0000
232.1544	61.9107	0.4940	33.1657	466.0000	2445.5000
232.3068	61.3246	0.3791	35.0386	451.0000	2443.5000
232.4592	61.6913	0.4220	34.0570	447.0000	2503.5000
232.6116	63.1792	0.4370	32.3800	486.0000	2538.2856
232.7640	64.1048	0.4424	31.0683	457.5000	2540.0000
232.9164	58.9785	0.6722	30.5325	437.0000	2457.0000
233.0688	52.3100	0.9018	29.1857	427.0000	2494.5000
233.2212	58.4021	0.6675	30.3480	447.0000	2427.5000
233.3736	71.5655	0.2789	32.1217	447.5000	2392.5000
233.5260	82.5543	0.0694	33.9288	428.0000	2355.0000
233.6784	82.1236	0.1082	34.3792	384.5714	2393.0000
233.8308	79.1760	0.2954	35.3047	405.5000	2412.5000
233.9832	88.8535	-0.2972	35.5394	450.5000	2329.5000
234.1356	96.6603	-0.3731	34.3416	400.0000	2336.0000
234.2880	102.4815	0.5499	34.7222	418.0000	2336.5000
234.4404	100.8678	0.1589	35.4272	400.5000	2346.0000
234.5928	97.5509	-0.2976	34.5705	412.5000	2337.5000
234.7452	95.1037	-0.4267	34.8331	402.0000	2297.7144
234.8976	89.9387	-0.3670	35.2504	428.0000	2315.0000
235.0500	88.5704	-0.2985	34.6968	403.5000	2370.0000
235.2024	91.5752	-0.4196	35.0382	431.0000	2338.0000
235.3548	93.1851	-0.4450	35.2302	414.5000	2325.0000
235.5072	90.7006	-0.3853	34.5070	426.5000	2338.0000
235.6596	88.8706	-0.3091	35.7209	423.5000	2428.8889
235.8120	89.1997	-0.3172	34.6685	399.5000	2280.0000
235.9644	86.0749	-0.1579	33.7772	413.0000	2373.5000
236.1168	78.0704	0.3599	33.2644	404.5000	2266.5000
236.2692	81.9650	0.1180	34.7464	414.2222	2290.0000
236.4216	78.2272	0.3429	33.3718	415.5000	2298.5000
236.5740	78.2505	-0.1913	33.1988	381.1429	2388.5715
236.7264	74.1945	0.0076	34.0975	421.0000	2384.5000
236.8788	75.6393	-0.0058	33.8119	432.0000	2346.2856
237.0312	75.6271	0.1003	32.8821	458.0000	2371.5000
237.1836	73.6156	0.4829	33.3163	450.2857	2415.0000
237.3360	74.4352	0.5523	34.4895	411.0000	2360.5715
237.4884	74.1461	0.5811	33.1628	436.5000	2347.0000
237.6408	73.1875	0.6159	33.5038	420.0000	2370.8572
237.7932	75.9868	0.4740	32.3057	404.0000	2347.5000
237.9456	78.1954	0.2237	31.7659	391.4286	2337.1428
238.0980	78.9597	0.0510	31.7376	430.0000	2422.5000
238.2504	83.2519	0.0281	33.5255	449.1429	2382.8572
238.4028	79.2227	0.2965	32.6501	439.5000	2385.5000
238.5552	75.1984	0.3730	33.4429	404.5714	2391.4285
238.7076	74.8024	0.5539	33.6309	403.5000	2356.0000
238.8600	79.6236	0.2850	32.8486	410.8571	2337.1428
239.0124	83.9766	-0.0213	32.2119	415.0000	2317.0000
239.1648	83.1469	0.0012	32.9107	402.8571	2379.5000
239.3172	84.2433	-0.0408	33.5219	420.5000	2398.8572
239.4696	83.5520	0.0115	35.0127	413.5000	2390.5000
239.6220	83.8862	-0.0075	34.5262	441.1429	2330.8572
239.7744	81.6106	0.1577	33.7726	394.0000	2339.0000
239.9268	79.4085	0.2747	34.3336	420.0000	2402.2856
240.0792	80.7683	0.2059	33.2887	428.0000	2368.0000
240.2316	81.7844	0.1467	31.3436	422.2857	2387.4285
240.3840	83.7769	0.0083	32.0590	434.0000	2295.0000
240.5364	77.4611	0.3994	31.0879	402.8571	2410.8572
240.6888	78.5521	0.3361	31.2928	426.0000	2366.0000
240.8412	80.2836	0.2263	31.8468	433.1429	2330.8572
240.9936	82.2775	0.0999	31.7953	405.5000	2347.0000
241.1460	83.3162	0.0268	32.8370	429.1429	2384.5715
241.2984	84.6106	-0.0563	33.5497	414.0000	2348.5000
241.4508	82.9421	0.0548	34.2555	424.0000	2318.0000
241.6032	81.7609	0.1429	33.8177	421.7143	2430.8572
241.7556	85.6969	-0.1282	35.9846	432.0000	2390.5000
241.9080	91.6508	-0.4241	35.3064	444.5714	2422.2856
242.0604	90.7064	-0.3934	37.7637	452.5000	2402.5000
242.2128	90.8872	-0.3999	36.8954	398.2857	2355.4285
242.3652	85.7670	-0.1354	37.2160	396.0000	2336.0000
242.5176	82.8579	0.0625	37.3497	442.6667	2337.1428
242.6700	84.1479	-0.0122	36.8428	412.5000	2382.5000
242.8224	88.6825	-0.2988	35.5440	410.8571	2321.1428
242.9748	90.8529	-0.3987	36.7146	430.0000	2409.5000
243.1272	89.6730	-0.4673	36.0239	406.0000	2312.0000
243.2796	89.8153	-0.4552	35.3893	374.2857	2338.2856
243.4320	82.6529	0.0710	34.9121	382.5000	2346.0000
243.5844	85.9545	-0.1454	33.6332	405.7143	2344.5715
243.7368	88.1748	-0.2683	33.5238	379.0000	2340.5000
243.8892	95.5200	-0.4210	33.6860	400.5714	2311.4285
244.0416	94.2467	-0.4448	32.9041	401.0000	2324.0000
244.1940	94.2790	-0.4424	32.6952	377.1429	2291.4285
244.3464	89.6073	-0.3507	34.6700	397.0000	2280.5000
244.4988	84.8867	-0.0681	34.1561	428.0000	2294.2856
244.6512	81.1831	0.1749	33.2713	401.0000	2332.0000
244.8036	82.7924	0.0657	34.3672	408.0000	2325.0000
244.9560	82.5463	0.0869	35.0878	409.1429	2317.7144
245.1084	82.0474	0.1138	34.4870	439.5000	2402.0000
245.2608	80.7340	0.1335	35.3690	423.4286	2322.8572
245.4132	82.1783	0.0945	36.3393	440.0000	2337.0000
245.5656	83.6505	0.0005	35.5791	438.2857	2312.0000
245.7180	87.9249	-0.2704	33.7725	402.5000	2340.5000
245.8704	92.6096	-0.4426	33.1384	376.5714	2287.4285
246.0228	87.0600	-0.2181	32.1841	438.0000	2316.0000
246.1752	92.7204	-0.4501	32.5144	424.5714	2299.5000
246.3276	88.6417	-0.3634	34.0294	398.0000	2278.8572
246.4800	80.4422	0.2082	34.0641	406.5000	2333.0000
246.6324	73.6216	0.2672	34.4880	418.2857	2409.1428
246.7848	71.3025	0.6711	33.4082	442.0000	2392.5000
246.9372	77.0807	0.4100	33.4751	442.2857	2405.7144
247.0896	73.3813	0.5974	33.9300	431.5000	2409.5000
247.2420	72.6861	0.6288	35.1540	436.0000	2412.0000
247.3944	69.4259	0.7557	36.4415	428.5000	2410.5000
247.5468	67.5363	0.7942	35.4098	433.1429	2361.7144
247.6992	65.5628	0.8525	34.0760	434.0000	2398.0000
247.8516	66.0494	0.8304	31.7048	451.4286	2405.5000
248.0040	73.0353	0.6141	31.0861	461.5000	2380.0000
248.1564	69.5085	0.7299	27.5054	450.0000	2387.0000
248.3088	68.2439	0.7735	28.0252	482.2857	2427.4285
248.4612	62.0683	0.8122	28.7955	444.0000	2446.0000
248.6136	80.0406	0.2352	30.9751	435.4286	2386.2856
248.7660	90.5036	-0.3868	32.1779	394.0000	2265.5000
248.9184	90.7121	-0.3927	35.0038	382.0000	2355.0000
249.0708	81.0670	0.1792	35.1629	410.2857	2437.1428
249.2232	86.8349	-0.1787	35.6298	394.5000	2449.0000
249.3756	97.8563	-0.2758	34.9875	399.4286	2352.5715
249.5280	101.5975	0.3053	34.8621	405.5000	2365.5000
249.6804	94.8599	-0.4337	33.5271	386.8571	2290.8572
249.8328	93.3989	-0.4467	33.5630	396.0000	2325.0000
249.9852	90.2003	-0.3736	34.0714	409.1429	2284.0000
250.1376	85.3226	-0.1067	34.1796	408.0000	2342.0000
250.2900	76.1125	0.4637	33.1869	429.1429	2395.4285
250.4424	73.1408	0.6111	33.7867	414.5000	2370.0000
250.5948	73.2086	0.6018	33.4605	462.5000	2378.0000
250.7472	73.0587	0.6096	33.7693	457.1429	2373.7144
250.8996	70.3753	0.7153	34.3962	462.5000	2422.0000
251.0520	66.3602	0.8263	33.2966	472.0000	2396.5715
251.2044	64.1511	0.8759	33.4004	432.5000	2473.0000
251.3568	67.3182	0.8208	33.1413	452.5714	2457.1428
251.5092	69.5619	0.7587	33.3116	471.5000	2431.5000
251.6616	70.1142	0.7151	33.0393	423.4286	2445.7144
251.8140	68.2080	0.5631	33.6732	467.0000	2457.0000
251.9664	68.3616	0.0081	34.7297	434.2857	2497.0000
252.1188	70.6331	-0.1381	36.8372	425.0000	2428.0000
252.2712	65.6571	0.3330	34.0986	446.0000	2439.5000
252.4236	64.0951	0.6135	32.3852	441.1429	2400.5715
252.5760	63.2813	0.8714	32.4981	442.5000	2356.5000
252.7284	65.3818	0.8440	32.3749	458.8571	2454.8572
252.8808	66.2445	0.8170	32.0109	461.0000	2405.5000
253.0332	66.4355	0.8095	31.8718	426.8571	2420.0000
253.1856	64.9196	0.8517	32.1936	462.5000	2452.0000
253.3380	68.1063	0.7876	31.5439	453.0000	2395.5000
253.4904	69.2452	0.7554	32.1995	446.2857	2354.8572
253.6428	67.8652	0.7916	31.5133	474.5000	2422.0000
253.7952	67.5586	0.7977	32.3352	452.0000	2357.7144
253.9476	68.2040	0.7800	34.6122	421.5000	2415.5000
254.1000	71.1751	0.6798	35.4346	450.2857	2334.2856
254.2524	71.2189	0.6881	34.4628	426.0000	2400.5000
254.4048	67.2495	0.7905	33.0299	406.8571	2412.0000
254.5572	67.5776	0.5030	34.3015	438.5000	2361.0000
254.7096	69.7931	0.1673	33.2846	462.8571	2295.4285
254.8620	71.9777	0.4288	33.4319	432.5000	2398.0000
255.0144	78.3423	0.3035	33.1088	424.5714	2353.7144
255.1668	77.3230	0.3937	32.8395	438.5000	2351.0000
255.3192	78.3256	0.3522	32.6025	464.5714	2385.7144
255.4716	80.4927	0.2233	32.7744	410.0000	2273.0000
255.6240	87.5731	-0.2412	32.6664	412.0000	2325.5000
255.7764	84.6216	-0.0591	33.0004	386.5000	2316.5715
255.9288	82.3034	0.0999	34.7794	391.0000	2337.5000
256.0812	81.8122	0.1347	34.8649	402.8571	2349.1428
256.2336	93.1983	-0.4453	33.2442	378.5000	2333.0000
256.3860	96.3654	-0.3800	33.6217	372.0000	2196.5000
256.5384	94.8225	-0.4349	34.0886	394.5000	2297.1428
256.6908	89.6967	-0.3403	34.1736	383.0000	2203.5000
256.8432	93.2866	-0.4459	34.7098	363.4286	2248.5715
256.9956	90.4994	-0.3827	36.4341	386.5000	2280.0000
257.1480	92.9544	-0.4440	36.9222	384.0000	2290.2856
257.3004	96.3927	-0.3793	35.9851	387.0000	2272.0000
257.4528	92.6093	-0.4372	34.6118	379.4286	2275.4285
257.6052	90.7245	-0.3848	35.2423	409.5000	2327.5000
257.7576	88.7934	-0.2826	35.5540	421.7143	2276.5715
257.9100	89.2870	-0.3203	36.3227	432.5000	2204.5000
258.0624	86.7626	-0.1656	38.0204	371.5000	2284.5000
258.2148	89.6251	-0.3281	38.1961	385.1429	2265.1428
258.3672	91.1252	-0.3947	37.6809	404.5000	2239.0000
258.5196	90.9402	-0.3886	37.9461	395.4286	2326.2856
258.6720	90.1270	-0.3621	36.6857	389.5000	2293.0000
258.8244	95.1821	-0.4296	36.6751	387.4286	2305.1428
258.9768	92.4892	-0.4350	36.5789	400.0000	2262.0000
259.1292	94.0350	-0.4450	37.2732	387.4286	2233.0000
259.2816	89.7528	-0.3557	38.1259	379.5000	2221.1428
259.4340	89.3906	-0.3349	38.2285	381.0000	2289.0000
259.5864	88.6412	-0.3042	38.2663	381.7143	2202.2856
259.7388	93.2582	-0.4467	39.7454	390.0000	2227.0000
259.8912	92.1424	-0.4284	39.8888	404.5714	2253.1428
260.0436	93.7615	-0.4463	38.8107	410.0000	2295.0000
260.1960	88.4072	-0.2707	39.0005	392.0000	2274.8572
260.3484	83.2849	0.0720	38.0614	414.5000	2226.0000
260.5008	78.6851	0.3346	36.3613	398.5000	2273.5000
260.6532	80.9397	0.1930	35.3189	378.8571	2231.4285
260.8056	84.2544	-0.0375	34.6376	385.5000	2259.0000
260.9580	86.0765	-0.1338	34.1298	392.0000	2269.1428
261.1104	81.8164	0.1488	32.6381	422.5000	2266.0000
261.2628	78.8727	0.3386	33.5814	401.7143	2353.7144
261.4152	78.2263	0.3550	34.5257	428.0000	2320.0000
261.5676	81.7965	0.1287	35.5756	410.5000	2286.0000
261.7200	80.1531	0.2392	34.9219	421.1429	2350.8572
261.8724	79.3471	0.2840	35.1725	429.5000	2349.0000
262.0248	76.5291	0.4372	34.0962	409.7143	2357.1428
262.1772	77.1506	0.4164	33.4069	432.0000	2276.5000
262.3296	76.6043	0.4557	33.1463	423.4286	2277.7144
262.4820	78.8497	0.3192	34.2395	441.5000	2303.5000
262.6344	77.5222	0.4024	34.9942	421.1429	2362.2856
262.7868	78.7472	0.3341	35.5752	435.5000	2356.5000
262.9392	79.0793	0.3111	36.5066	426.8571	2286.2856
263.0916	77.5826	0.4018	36.1926	419.5000	2285.0000
263.2440	78.1236	0.3830	35.3998	426.2857	2326.5000
263.3964	80.9814	0.2088	35.0166	388.0000	2349.1428
263.5488	80.9722	0.1864	34.3543	415.5000	2310.5000
263.7012	82.4389	0.0918	32.8144	426.2857	2325.1428
263.8536	83.9075	-0.1577	32.8844	440.5000	2252.5000
264.0060	84.4194	-0.0297	32.2254	386.2857	2332.0000
264.1584	86.0112	-0.1489	32.2299	398.5000	2417.5000
264.3108	93.2514	-0.4466	33.1831	415.0000	2292.0000
264.4632	103.1445	0.7759	33.8122	396.0000	2258.2856
264.6156	102.2829	0.5029	33.0855	370.5000	2313.5000
264.7680	105.1508	2.0000	29.2378	365.7143	2400.0000
264.9204	101.5129	0.3410	34.6746	379.0000	2251.0000
265.0728	96.7714	-0.3549	35.7632	387.4286	2293.7144
265.2252	91.7207	-0.4240	34.3489	372.5000	2270.5000
265.3776	98.7153	-0.1662	36.9696	385.7143	2240.5715
265.5300	95.2051	-0.4213	36.7481	400.0000	2294.5000
265.6824	95.1553	-0.4218	36.4450	366.0000	2318.0000
265.8348	94.4189	-0.3944	35.4463	372.5714	2246.8572
265.9872	92.5532	-0.4492	37.5265	375.0000	2224.5000
266.1396	89.1549	-0.3279	36.2293	407.4286	2260.5715
266.2920	91.3100	-0.4087	36.7042	358.5000	2312.0000
266.4444	93.6077	-0.4470	37.7514	392.0000	2213.1428
266.5968	92.5192	-0.4395	35.9602	379.0000	2284.0000
266.7492	88.4997	-0.2811	35.1617	381.7143	2277.1428
266.9016	87.9349	-0.2387	35.3302	387.5000	2269.5000
267.0540	89.7281	-0.3474	35.2083	424.5714	2288.0000
267.2064	99.3129	-0.1178	35.0434	412.0000	2273.1428
267.3588	91.3713	-0.4094	35.4630	394.0000	2307.0000
267.5112	73.9305	0.5733	35.0395	384.0000	2458.2856
267.6636	58.9765	0.7887	33.5328	440.5000	2542.5000
267.8160	59.6760	0.6921	32.7678	451.4286	2580.5715
267.9684	63.3591	0.3575	32.6408	445.0000	2413.0000
268.1208	63.2634	0.8729	31.2054	474.2857	2429.1428
268.2732	62.9756	0.8798	30.0756	465.0000	2568.0000
268.4256	71.3512	0.6703	29.8825	454.8571	2541.1428
268.5780	83.8959	-0.0116	32.1929	434.0000	2451.5000
268.7304	86.6779	-0.1831	33.7586	404.5000	2424.5000
268.8828	85.1302	-0.0897	34.0507	453.1429	2331.4285
269.0352	84.0151	-0.0305	34.1721	414.0000	2406.0000
269.1876	82.5674	-0.2953	34.2077	452.5714	2367.4285
269.3400	84.3464	-0.2687	32.9224	417.0000	2481.5000
269.4924	85.4656	-0.4508	33.4746	424.0000	2412.5715
269.6448	85.8286	-0.4472	32.5321	437.5000	2430.5000
269.7972	83.0451	-0.2221	32.4494	456.5714	2417.5000
269.9496	80.9043	-0.0001	33.6782	435.0000	2429.7144
270.1020	79.7088	0.0215	35.2186	424.0000	2415.0000
270.2544	77.3933	0.3999	33.8658	482.2857	2463.4285
270.4068	76.6346	0.4477	34.9450	446.0000	2406.5000
270.5592	75.8412	0.4852	34.2817	433.1429	2410.8572
270.7116	74.5997	0.5411	34.0399	445.0000	2464.5000
270.8640	74.4481	0.1207	33.4954	450.8571	2358.8572
271.0164	72.5905	0.2976	32.6066	422.5000	2455.0000
271.1688	72.0170	0.5782	30.9635	460.5714	2432.5000
271.3212	70.7466	0.6898	30.7973	466.0000	2497.7144
271.4736	68.3315	0.7712	30.7041	423.5000	2418.5000
271.6260	68.5991	0.7697	31.1405	464.0000	2392.5715
271.7784	66.0652	0.8221	32.3886	450.5000	2426.5000
271.9308	66.5322	0.6294	33.0587	436.5714	2453.1428
272.0832	66.5103	0.2985	35.1439	459.5000	2374.5000
272.2356	69.4352	0.1523	34.7529	428.0000	2369.7144
272.3880	68.7686	0.7526	32.8759	426.0000	2446.5000
272.5404	69.9496	0.4271	32.1283	417.1429	2424.0000
272.6928	72.7015	0.6157	33.2781	448.5000	2373.0000
272.8452	68.8310	0.5949	34.3901	436.5000	2385.0000
272.9976	69.1977	0.7391	34.9100	448.0000	2432.0000
273.1500	68.6704	0.5606	36.8036	415.0000	2370.0000
273.3024	73.2052	0.2135	38.9317	413.7143	2451.4285
273.4548	73.2999	0.0405	37.2701	440.5000	2462.5000
273.6072	72.8978	0.2947	34.4872	468.5714	2474.8572
273.7596	69.5120	0.6103	32.7905	459.5000	2365.7144
273.9120	68.6100	0.7560	30.9500	453.3333	2452.0000
274.0644	67.5880	0.3501	30.8739	458.0000	2452.5000
274.2168	70.9025	0.5452	31.0045	476.5714	2525.7144
274.3692	74.2497	0.5607	30.4793	475.5000	2425.5000
274.5216	78.3795	0.3433	32.2980	454.0000	2443.0000
274.6740	78.1230	0.3655	32.4663	418.2857	2496.5715
274.8264	78.6891	0.3553	32.3616	402.5000	2439.5000
274.9788	82.2314	0.1087	33.6206	420.5714	2434.8572
275.1312	84.1019	-0.0232	35.4444	421.5000	2358.0000
275.2836	79.6971	0.2647	32.4055	441.7143	2409.5000
275.4360	75.9572	0.3522	33.3175	445.5000	2488.0000
275.5884	77.8435	-0.1656	34.2687	439.5000	2427.5000
275.7408	77.5610	0.0166	34.6917	435.4286	2409.1428
275.8932	74.2424	-0.1495	35.5509	450.5000	2409.0000
276.0456	61.0139	0.4554	36.6850	445.7143	2350.8572
276.1980	53.5529	0.8046	34.9069	442.0000	2535.0000
276.3504	52.0549	0.9931	32.5515	448.0000	2457.7144
276.5028	69.0627	0.7453	32.4445	466.0000	2416.0000
276.6552	68.4211	0.5831	30.8781	462.2857	2430.2856
276.8076	67.6804	0.5018	29.9856	510.5000	2488.5000
276.9600	68.8067	0.4264	30.1983	471.4286	2526.2856
277.1124	73.5535	0.0214	32.0507	460.5000	2462.5000
277.2648	74.0076	0.3140	32.0824	450.8571	2454.8572
277.4172	70.1767	0.7100	31.8930	467.5000	2454.0000
277.5696	74.7904	0.5297	33.5942	442.8571	2429.7144
277.7220	77.7106	0.2269	34.9549	447.5000	2378.0000
277.8744	79.8144	0.2537	34.6148	449.1429	2440.0000
278.0268	80.7158	0.0425	33.8824	434.0000	2478.0000
278.1792	81.4321	0.0357	33.8909	445.0000	2467.5000
278.3316	75.5035	0.2638	33.0998	442.2857	2471.4285
278.4840	68.0542	0.7701	31.6979	457.5000	2485.5000
278.6364	65.7309	0.8269	31.2033	448.0000	2437.1428
278.7888	63.7269	0.8676	31.6679	466.0000	2506.0000
278.9412	63.8539	0.8751	32.0096	458.8571	2467.5000
279.0936	61.5925	0.9146	32.6575	455.5000	2462.2856
279.2460	61.8409	0.9000	33.3110	476.5000	2464.0000
279.3984	59.5089	0.9317	34.2617	472.0000	2412.0000
279.5508	58.8192	0.9393	34.1155	449.5000	2503.0000
279.7032	60.4771	0.9257	33.3143	460.0000	2453.1428
279.8556	69.6258	0.7237	33.3690	463.5000	2499.5000
280.0080	72.0217	0.1094	33.3156	472.0000	2490.2856
280.1604	77.0665	-0.2425	32.0717	449.5000	2485.0000
280.3128	73.7233	-0.2056	32.1818	456.5714	2385.7144
280.4652	74.7103	-0.3173	32.9043	450.5000	2424.0000
280.6176	74.1709	0.1835	32.8319	454.2857	2394.2856
280.7700	75.7902	0.4787	32.6548	416.0000	2487.0000
280.9224	77.7690	0.3954	33.6238	450.2857	2440.0000
281.0748	77.2169	0.4208	33.7046	445.5000	2432.5715
281.2272	73.1925	0.6179	34.6053	431.0000	2408.5000
281.3796	71.0971	0.6859	34.3793	450.8571	2388.0000
281.5320	73.0636	0.6051	34.9357	416.5000	2411.0000
281.6844	75.3116	0.4999	35.5396	444.0000	2448.5715
281.8368	74.4832	0.5428	35.9182	447.5000	2452.0000
281.9892	66.6538	0.7002	34.7186	464.0000	2510.8572
282.1416	69.3074	0.7350	34.1146	443.0000	2447.0000
282.2940	69.2953	0.7047	33.8153	434.2857	2469.7144
282.4464	65.0352	0.8458	33.5537	463.0000	2469.0000
282.5988	66.1690	0.8269	33.1129	469.7143	2423.0000
282.7512	65.1747	0.8538	32.0271	459.5000	2367.4285
282.9036	72.3972	0.6437	32.9342	462.0000	2454.5000
283.0560	68.4461	0.7789	34.5468	500.5714	2475.4285
283.2084	69.3069	0.7486	33.2971	455.0000	2499.5000
283.3608	66.2790	0.8183	32.7882	504.0000	2491.4285
283.5132	66.2490	0.8115	33.9047	462.5000	2528.5000
283.6656	66.5627	0.7398	32.4089	481.7143	2480.5715
283.8180	66.3101	0.5192	32.3428	468.5000	2507.5000
283.9704	64.2038	0.8518	31.8415	456.5714	2472.5715
284.1228	63.5723	0.8681	30.7936	447.0000	2483.0000
284.2752	62.2424	0.8869	30.4170	469.7143	2475.4285
284.4276	65.8438	0.8345	32.9915	475.0000	2454.5000
284.5800	68.4677	0.7890	32.0632	462.8571	2391.0000
284.7324	70.0549	0.7384	33.1013	446.0000	2406.8572
284.8848	67.3225	0.8066	35.8421	461.5000	2422.5000
285.0372	67.9432	0.8113	35.3110	464.0000	2407.4285
285.1896	67.1826	0.8136	33.6545	443.5000	2402.5000
285.3420	64.9913	0.8603	33.8683	445.1429	2522.8572
285.4944	64.5694	0.8527	32.0843	435.5000	2407.0000
285.6468	62.4041	0.8864	30.5715	436.5714	2430.2856
285.7992	63.6067	0.6874	30.5475	454.5000	2419.0000
285.9516	67.6917	0.7769	31.4842	480.5714	2436.5715
286.1040	72.0779	0.1015	32.8527	449.5000	2437.5000
286.2564	71.0329	0.6769	34.1771	438.5000	2443.5000
286.4088	69.1572	0.7065	33.4157	415.4286	2435.4285
286.5612	72.1885	0.6407	35.1264	438.0000	2435.5000
286.7136	83.6492	-0.1497	36.0117	441.1429	2440.0000
286.8660	93.5460	-0.4464	34.5272	388.5000	2366.5000
287.0184	98.0172	-0.2416	33.8654	398.8571	2386.2856
287.1708	90.4456	-0.3785	35.1197	386.0000	2371.0000
287.3232	89.5463	-0.3469	36.2145	421.7143	2298.8572
287.4756	89.4643	-0.3374	35.8508	398.0000	2319.5000
287.6280	90.0415	-0.3832	35.6500	401.7143	2319.0000
287.7804	84.0736	-0.0255	35.9532	433.5000	2353.1428
287.9328	80.7527	0.1888	34.5624	446.0000	2352.0000
288.0852	80.3550	-0.3549	32.8015	451.4286	2274.8572
288.2376	63.3222	0.3721	32.3594	487.5000	2355.5000
288.3900	61.5165	0.5080	30.7894	471.4286	2632.0000
288.5424	66.7284	0.3671	31.5615	477.5000	2460.5000
288.6948	91.0153	-0.4588	32.7234	436.5714	2455.5000
288.8472	83.9670	0.0040	33.4488	437.5000	2445.7144
288.9996	81.1337	0.1835	33.2278	452.5714	2514.8572
289.1520	78.2677	0.3551	35.0518	460.5000	2449.5000
289.3044	76.5289	0.4495	35.3715	437.1429	2436.5000
289.4568	72.4617	0.6383	35.5874	462.5000	2392.0000
289.6092	69.8602	0.7278	33.9137	435.0000	2400.0000
289.7616	70.0185	0.7193	33.1516	442.8571	2394.2856
289.9140	72.1908	0.6492	32.5699	439.0000	2445.0000
290.0664	77.9667	0.2089	31.8244	433.1429	2365.7144
290.2188	79.8065	0.0142	30.3121	409.0000	2360.5000
290.3712	77.9343	0.2345	30.4188	400.0000	2369.1428
290.5236	76.7282	0.2416	31.0350	396.5000	2351.0000
290.6760	82.6269	-0.2368	31.4329	440.0000	2396.0000
290.8284	88.9982	-0.3208	30.9094	413.7143	2333.1428
290.9808	94.0089	-0.4444	32.2739	393.5000	2369.5000
291.1332	88.8544	-0.4169	32.5994	408.0000	2315.4285
291.2856	89.9090	-0.3556	32.8523	379.0000	2368.0000
291.4380	88.3761	-0.2760	32.4358	433.7143	2353.1428
291.5904	90.6960	-0.3854	34.0112	382.0000	2371.5000
291.7428	90.1258	-0.3668	33.5445	402.8571	2359.4285
291.8952	88.9489	-0.3037	34.7134	405.5000	2406.0000
292.0476	87.6691	-0.2404	35.8399	426.5000	2377.0000
292.2000	89.1740	-0.3135	36.7529	406.2857	2350.2856
292.3524	88.1211	-0.2660	36.5757	460.0000	2326.0000
292.5048	88.3642	-0.2768	35.7709	411.4286	2402.2856
292.6572	86.4787	-0.1666	35.3405	417.5000	2390.0000
292.8096	87.9654	-0.2557	34.5761	430.2857	2346.2856
292.9620	82.3782	0.0985	35.0941	414.2857	2295.5000
293.1144	83.3095	0.0256	34.8129	401.0000	2400.5715
293.2668	81.9253	0.1125	35.6696	396.0000	2334.5000
293.4192	77.2535	0.3969	34.1061	452.0000	2427.4285
293.5716	70.4248	-0.0241	33.7391	471.5000	2463.0000
293.7240	68.2888	0.1757	32.7624	442.0000	2434.5000
293.8764	64.8917	0.8397	31.4113	504.0000	2497.7144
294.0288	61.6903	0.9033	30.1893	475.5000	2412.5000
294.1812	59.4635	0.9331	30.8336	482.8571	2481.1428
294.3336	60.3525	0.9293	31.1479	487.5000	2466.5000
294.4860	61.4715	0.9228	30.6644	453.1429	2484.5715
294.6384	65.5700	0.8317	31.2358	459.0000	2425.5000
294.7908	66.2110	0.8373	31.3406	447.0000	2435.5000
294.9432	66.3715	0.8154	31.3157	467.4286	2536.0000
295.0956	64.9815	0.6271	32.0033	475.0000	2456.0000
295.2480	64.1519	0.8527	30.5349	477.7143	2496.5715
295.4004	65.8718	0.5420	31.1923	461.5000	2503.0000
295.5528	65.4951	0.5955	31.2513	464.5714	2484.5715
295.7052	67.1017	0.8016	29.4850	457.0000	2540.0000
295.8576	67.3162	0.8002	29.7624	498.8571	2455.4285
296.0100	70.8661	0.6970	31.1586	456.0000	2499.0000
296.1624	70.9195	0.6975	31.3611	441.5000	2504.0000
296.3148	70.4250	0.7094	32.7532	422.8571	2452.0000
296.4672	63.5043	0.8710	32.9601	445.5000	2457.5000
296.6196	62.0369	0.8906	30.5897	468.0000	2490.8572
296.7720	64.0108	0.8142	29.9614	498.5000	2454.0000
296.9244	66.1350	0.5646	29.9425	485.1429	2456.0000
297.0768	62.4293	0.8111	27.9549	493.0000	2504.5000
297.2292	57.6202	0.8308	26.4692	474.8571	2521.1428
297.3816	48.0545	0.8581	26.8888	478.5000	2550.0000
297.5340	44.6862	0.9630	26.6593	489.5000	2558.5000
297.6864	45.8512	1.0449	26.3738	509.7143	2494.8572
297.8388	59.1406	0.8551	26.8599	506.8571	2546.2856
297.9912	57.2328	0.4066	29.1940	482.0000	2473.5000
298.1436	57.7574	0.4132	28.3208	483.4286	2537.0000
298.2960	53.9070	0.4790	28.0422	544.5000	2514.2856
298.4484	57.3432	0.3581	27.8971	478.0000	2480.0000
298.6008	55.4310	0.3958	26.9792	484.5714	2461.7144
298.7532	53.7208	0.5396	26.2015	515.5000	2535.0000
298.9056	49.9940	0.6837	27.4164	497.7143	2518.2856
299.0580	50.8458	0.8125	26.9163	499.5000	2485.0000
299.2104	64.5366	0.8453	28.3148	484.5000	2506.5000
299.3628	80.8397	0.1829	30.8085	430.2857	2436.5715
299.5152	98.8175	-0.1563	34.3019	411.0000	2423.5000
299.6676	87.1880	-0.2061	33.8703	432.0000	2411.4285
299.8200	75.5900	0.5112	34.9890	445.0000	2485.5000
299.9724	67.7577	0.8040	33.5501	481.0000	2452.0000
300.1248	70.8150	0.7029	32.6924	496.5714	2378.8572
300.2772	63.8070	0.7200	30.6906	482.0000	2428.0000
300.4296	55.9531	0.3140	30.9442	520.5714	2483.5000
300.5820	48.4130	0.3125	30.5058	491.0000	2630.0000
300.7344	48.6729	0.2751	29.9401	527.4286	2628.5715
300.8868	51.1595	0.1405	30.4744	501.0000	2559.0000
301.0392	52.4031	0.1687	29.7579	493.7143	2573.7144
301.1916	51.4633	0.1749	30.8900	505.5000	2565.0000
301.3440	53.3934	0.1440	30.5175	475.4286	2597.1428
301.4964	55.0131	0.0822	30.8302	505.0000	2543.0000
301.6488	54.2447	0.2226	31.3404	481.5000	2582.5000
301.8012	51.4296	0.2728	32.0876	470.2857	2629.1428
301.9536	54.2709	0.2864	31.4536	488.0000	2576.0000
302.1060	63.7285	0.1371	31.7331	478.8571	2467.4285
302.2584	63.0626	0.2321	33.0561	467.5000	2466.5000
302.4108	57.6484	0.4886	32.4412	416.5714	2544.0000
302.5632	51.5970	0.6244	32.3241	426.5000	2509.5000
302.7156	60.0731	0.8665	31.2489	462.8571	2494.2856
302.8680	74.6476	0.5373	33.4107	471.0000	2389.5000
303.0204	87.3394	-0.2215	33.0987	422.0000	2312.5000
303.1728	90.0433	-0.3998	33.2564	453.7143	2423.4285
303.3252	87.4763	-0.2362	34.8983	412.5000	2413.0000
303.4776	82.1826	0.0625	36.2423	395.4286	2346.8572
303.6300	76.1728	0.4870	35.0439	457.5000	2534.5000
303.7824	69.6526	0.7425	32.9214	444.0000	2435.5000
303.9348	69.9556	0.7308	32.9724	458.5000	2493.7144
304.0872	61.4467	0.9105	29.9694	426.5000	2464.0000
304.2396	60.2615	0.9293	29.5708	483.4286	2466.8572
304.3920	64.9589	0.8499	28.9143	458.0000	2450.5000
304.5444	67.5885	0.8018	30.2783	444.0000	2460.5000
304.6968	74.1366	0.5911	31.0571	441.5000	2466.0000
304.8492	70.1367	0.7388	31.5986	444.5714	2426.5000
305.0016	68.8486	0.7783	30.8712	431.4286	2462.8572
305.1540	79.0376	0.3131	32.2877	449.5000	2389.5000
305.3064	88.0241	-0.2578	32.7682	453.7143	2388.0000
305.4588	94.1718	-0.4431	33.1351	401.5000	2380.5715
305.6112	85.9458	-0.1252	34.3091	388.0000	2337.0000
305.7636	87.3100	-0.2282	35.4568	392.0000	2357.1428
305.9160	92.2643	-0.4292	36.5654	401.0000	2287.5000
306.0684	98.7319	-0.1672	36.4764	438.8571	2296.5715
306.2208	96.5025	-0.3666	35.8100	394.5000	2294.0000
306.3732	95.6053	-0.4092	35.4034	374.8571	2286.2856
306.5256	91.6939	-0.4226	35.4463	404.5000	2346.0000
306.6780	89.0921	-0.3244	34.6307	399.0000	2325.5000
306.8304	90.8408	-0.3950	34.2386	398.8571	2274.8572
306.9828	91.2187	-0.4065	34.9074	371.5000	2261.5000
307.1352	91.7381	-0.4192	34.8524	401.1429	2325.1428
307.2876	93.4781	-0.4455	33.7110	404.5000	2329.0000
307.4400	93.2263	-0.4441	34.4687	417.0000	2317.0000
307.5924	95.2059	-0.4259	35.3452	417.1429	2326.2856
307.7448	87.5865	-0.2298	36.1947	470.0000	2339.5000
307.8972	81.4779	0.1468	35.8315	430.8571	2432.0000
308.0496	74.7891	0.5296	34.6329	427.5000	2393.5000
308.2020	72.5313	0.6299	34.7339	454.2857	2374.8572
308.3544	64.1799	0.8585	32.4688	449.5000	2427.0000
308.5068	60.5769	0.9190	30.2023	463.0000	2395.5000
308.6592	58.1115	0.8926	30.2008	498.8571	2408.5715
308.8116	53.8208	0.9741	29.7416	518.5000	2405.0000
308.9640	49.0086	0.9605	30.2253	497.0000	2489.5000
309.1164	46.1326	0.9520	30.3342	473.7143	2490.8572
309.2688	51.0567	0.6353	30.6881	468.5000	2493.0000
309.4212	56.7692	0.4080	31.1526	475.4286	2470.8572
309.5736	53.7488	0.2450	31.0875	466.0000	2489.5000
309.7260	49.3294	0.1874	31.0618	483.0000	2567.0000
309.8784	44.8606	0.1883	30.4208	488.0000	2560.5715
310.0308	46.6255	0.0661	30.5301	523.0000	2541.0000
310.1832	47.3361	0.0764	31.7753	495.4286	2603.4285
310.3356	49.7600	-0.1056	32.4346	498.5000	2626.0000
310.4880	50.6457	-0.0880	31.7387	517.7143	2537.0000
310.6404	49.0686	0.0053	31.7157	550.0000	2672.5715
310.7928	46.7890	0.1703	33.1217	480.0000	2629.0000
310.9452	48.5950	0.2119	31.1737	475.4286	2490.8572
311.0976	44.2785	0.5811	31.2020	463.5000	2578.5000
311.2500	45.5321	0.8862	30.3021	478.8571	2571.4285
311.4024	53.7250	0.7408	32.7720	448.5000	2567.5000
311.5548	60.5140	0.9129	31.1462	437.5000	2568.0000
311.7072	70.2035	0.7238	32.9400	414.8571	2498.8572
311.8596	83.1657	0.0591	33.9098	395.5000	2440.0000
312.0120	92.0662	-0.4294	35.2865	392.5714	2388.0000
312.1644	94.5153	-0.4372	34.0781	422.5000	2226.8572
312.3168	90.0294	-0.3686	35.2380	386.5000	2263.5000
312.4692	87.1285	-0.1955	35.2733	412.0000	2346.8572
312.6216	85.2841	-0.0719	34.5650	405.0000	2353.5000
312.7740	84.9585	-0.0694	33.7538	408.5714	2333.7144
312.9264	87.1313	-0.2023	33.6992	483.0000	2276.5000
313.0788	93.1196	-0.4449	34.2249	465.7143	2310.8572
313.2312	81.0029	0.1734	34.8224	419.5000	2312.5000
313.3836	62.3118	0.4142	34.3357	418.2857	2457.7144
313.5360	48.3150	0.6564	33.8008	465.0000	2475.5000
313.6884	48.2178	0.5772	34.0179	506.2857	2482.2856
313.8408	48.4623	0.6682	32.2261	516.5000	2496.5000
313.9932	47.3134	0.5291	31.7192	520.5714	2481.5000
314.1456	45.3474	0.6226	31.3075	526.5000	2497.1428
314.2980	47.0633	0.4099	31.1886	522.0000	2541.0000
314.4504	46.7413	0.3965	30.6653	516.5714	2559.4285
314.6028	49.4034	0.2607	31.3539	501.0000	2613.0000
314.7552	50.6285	0.3283	31.4592	483.4286	2542.8572
314.9076	51.8116	0.3525	31.3179	530.5000	2584.0000
315.0600	48.0352	0.5136	30.9699	461.7143	2587.5000
315.2124	49.9841	0.4938	31.0672	498.0000	2460.5715
315.3648	44.4908	0.8065	29.4290	536.0000	2553.0000
315.5172	51.7299	0.7789	29.5081	484.0000	2538.8572
315.6696	52.6991	0.7479	30.4276	507.0000	2435.0000
315.8220	50.5080	0.5352	31.0303	489.7143	2585.0000
315.9744	45.6766	0.7246	29.3584	484.5000	2539.4285
316.1268	49.1010	0.6063	28.6041	514.0000	2621.5000
316.2792	48.2474	0.4613	29.2706	545.5000	2618.5000
316.4316	49.5236	0.2226	28.5944	526.8571	2614.2856
316.5840	47.5311	0.1615	29.0055	496.0000	2517.5000
316.7364	47.3787	0.0738	28.4077	522.2857	2649.0000
316.8888	44.9893	0.0207	28.2224	495.0000	2553.7144
317.0412	46.0470	-0.0906	27.7976	547.5000	2652.5000
317.1936	47.7157	-0.1447	28.6249	537.1429	2622.5000
317.3460	50.3874	-0.1908	28.4411	523.5000	2639.4285
317.4984	47.4848	-0.1082	28.9719	537.0000	2794.5000
317.6508	48.1808	-0.0826	28.9467	535.5000	2867.5000
317.8032	50.1519	-0.0609	28.3402	557.0000	2843.0000
317.9556	52.4779	-0.0139	27.5066	547.4286	2808.0000
318.1080	50.6165	0.1402	27.0574	520.5000	2962.5000
318.2604	50.7276	0.1678	27.5753	529.5000	2973.7144
318.4128	54.5400	0.2155	28.7553	540.5000	2975.5000
318.5652	58.0764	-0.0419	29.8397	534.5000	2884.0000
318.7176	61.8560	-0.3237	28.6046	508.5714	2765.0000
318.8700	59.9088	-0.2854	28.7823	459.0000	2748.0000
319.0224	54.0014	0.0215	28.5677	489.0000	2816.0000
319.1748	55.4196	0.0116	28.5256	482.2857	2713.7144
319.3272	60.1932	0.2109	28.8114	471.0000	2465.5000
319.4796	66.7738	0.3086	30.6923	434.5000	2386.5000
319.6320	65.6126	0.4000	32.2403	487.4286	2387.5000
319.7844	59.2533	0.5559	32.1315	489.5000	2424.0000
319.9368	56.3355	0.3935	32.0931	492.5000	2381.0000
320.0892	49.4479	0.3465	31.3751	515.5000	2464.5000
320.2416	50.6303	0.1401	32.3515	522.2857	2595.0000
320.3940	53.4026	0.0122	32.3501	475.5000	2557.7144
320.5464	53.5082	0.0258	31.9939	460.5000	2517.0000
320.6988	51.5348	0.1468	31.0595	393.7143	2656.0000
320.8512	52.8175	0.1212	30.3650	477.5000	2556.0000
321.0036	70.0601	0.1963	29.8910	466.2857	2471.0000
321.1560	89.3349	-0.3316	29.4553	414.0000	2316.5715
321.3084	105.5225	1.6472	25.6496	353.5000	2329.0000
321.4608	99.7724	-0.0190	30.8511	371.4286	2378.8572
321.6132	97.0720	-0.3346	31.9399	395.0000	2381.0000
321.7656	94.6883	-0.4353	33.1537	408.5714	2327.4285
321.9180	95.4694	-0.4151	34.1621	413.0000	2317.5000
322.0704	90.7418	-0.3910	35.3488	360.0000	2322.0000
322.2228	86.6034	-0.1877	36.8270	420.5000	2374.8572
322.3752	91.3606	-0.4130	35.5088	416.0000	2300.5000
322.5276	90.6543	-0.3890	34.4418	432.5714	2258.8572
322.6800	72.1245	-0.1135	33.0606	437.0000	2358.5000
322.8324	57.7801	0.2275	32.2284	432.0000	2442.0000
322.9848	51.0925	0.4768	30.9034	428.5714	2398.2856
323.1372	53.5495	0.3614	30.7509	487.0000	2490.5000
323.2896	53.9641	0.4017	30.3906	471.0000	2453.5000
323.4420	56.7181	0.5044	29.5780	478.8571	2440.0000
323.5944	52.1135	0.5089	28.9526	480.0000	2502.5000
323.7468	48.5290	0.4555	28.6479	472.5000	2526.5000
323.8992	42.7576	0.4194	28.7083	529.1429	2488.0000
324.0516	43.6787	0.4058	28.6348	505.0000	2555.4285
324.2040	47.9157	0.3984	28.6957	506.0000	2481.5000
324.3564	53.5547	0.4912	26.8104	521.1429	2533.7144
324.5088	47.6799	0.6624	26.2265	504.5000	2543.0000
324.6612	45.0796	0.8948	26.0107	501.1429	2665.1428
324.8136	51.1653	0.6363	26.4968	505.5000	2537.5000
324.9660	55.6038	0.3634	28.0088	475.0000	2510.5000
325.1184	55.7239	0.4453	30.4296	469.7143	2550.8572
325.2708	57.1737	0.4134	31.2770	490.0000	2495.0000
325.4232	59.8727	0.1320	32.2151	517.7143	2546.5000
325.5756	55.9284	0.4243	32.3251	487.5000	2515.4285
325.7280	55.3493	0.6964	30.8982	491.5000	2559.5000
325.8804	48.5386	0.6944	30.6377	468.0000	2524.5000
326.0328	49.7222	0.7065	30.8693	492.0000	2533.1428
326.1852	45.3952	1.0516	29.2730	445.5000	2568.5000
326.3376	61.5442	0.9034	30.1715	413.7143	2496.5715
326.4900	70.6100	0.2775	33.2803	419.5000	2492.5000
326.6424	63.0490	0.2855	32.9763	460.5714	2434.2856
326.7948	54.7409	0.4906	32.6955	513.0000	2553.0000
326.9472	46.1933	0.4467	32.3016	477.5000	2546.0000
327.0996	49.7339	0.3408	31.9336	449.7143	2517.1428
327.2520	46.2019	0.6381	30.4504	496.5000	2555.0000
327.4044	39.0445	1.0267	30.2900	483.0000	2513.7144
327.5568	39.1047	1.1359	29.4804	464.5714	2472.0000
327.7092	39.8448	1.1257	29.5004	484.0000	2444.0000
327.8616	44.9553	1.0657	30.1799	452.0000	2574.0000
328.0140	58.5299	0.9430	30.4754	495.4286	2506.5000
328.1664	60.1406	0.9170	29.1007	489.0000	2522.2856
328.3188	56.3193	0.4960	28.2344	451.5000	2565.0000
328.4712	50.5458	0.4189	28.0372	513.1429	2619.4285
328.6236	44.6877	0.5795	27.8278	525.5000	2551.5000
328.7760	46.8294	0.4466	27.9832	528.0000	2529.5000
328.9284	45.7682	0.4211	27.7454	506.8571	2551.4285
329.0808	43.6208	0.2869	31.1676	476.5000	2614.5000
329.2332	41.7147	0.2810	30.0944	525.1429	2628.0000
329.3856	41.8761	0.1803	28.9791	497.0000	2568.0000
329.5380	46.2996	0.0934	28.4545	560.0000	2697.5000
329.6904	46.3348	0.0444	27.8042	505.1429	2638.8572
329.8428	49.5220	0.0172	26.2167	517.0000	2687.5000
329.9952	47.8385	0.0934	27.0013	521.7143	2594.8572
330.1476	47.6304	0.1076	26.3354	517.5000	2683.5000
330.3000	47.4268	0.1170	25.2302	521.0000	2668.5000
330.4524	48.2840	0.0823	25.2512	530.2857	2584.0000
330.6048	43.7967	0.2653	25.2992	479.5000	2647.0000
330.7572	47.0184	0.2469	25.7156	448.0000	2661.7144
330.9096	65.5596	-0.1092	27.2201	540.0000	2454.0000
331.0620	91.5554	-0.1985	29.2920	468.0000	2326.0000
331.2144	86.1708	-0.1499	30.1484	413.5000	2410.8572
331.3668	77.2024	0.4075	30.9142	381.0000	2567.5000
331.5192	82.6842	0.0765	32.1448	386.2857	2413.1428
331.6716	86.9271	-0.1936	34.2871	388.0000	2297.0000
331.8240	80.8426	0.1949	35.7274	417.1429	2361.1428
331.9764	80.3122	0.2206	35.0112	487.0000	2326.5000
332.1288	92.5997	-0.4383	33.7239	528.5714	2354.8572
332.2812	79.9501	-0.0893	33.5609	431.5000	2321.0000
332.4336	60.4075	0.5047	31.0635	409.7143	2463.0000
332.5860	40.5361	0.6546	30.3816	485.0000	2566.2856
332.7384	41.3116	0.5780	30.1062	493.5000	2602.0000
332.8908	47.6146	0.3418	29.9194	526.2857	2545.1428
333.0432	44.2481	0.5180	29.7509	512.0000	2567.0000
333.1956	47.8031	0.3424	29.3883	506.2857	2608.5715
333.3480	51.9782	0.3264	29.0336	525.0000	2526.5000
333.5004	52.6519	0.3359	29.8307	508.5714	2588.0000
333.6528	55.3954	0.4493	29.6031	501.0000	2560.0000
333.8052	56.9986	0.4263	28.3714	470.8571	2474.5000
333.9576	60.1111	0.7299	27.7729	477.0000	2492.0000
334.1100	50.7825	1.0039	27.0105	494.5000	2567.5000
334.2624	51.2978	0.9944	27.6603	497.1429	2491.0000
334.4148	45.6702	1.0473	29.3300	515.0000	2541.1428
334.5672	48.0428	1.0202	29.0955	492.0000	2558.0000
334.7196	47.0228	1.0340	28.8486	479.4286	2516.0000
334.8720	57.0425	0.5650	31.3184	482.5000	2529.5000
335.0244	57.1100	0.4754	31.0240	464.0000	2498.0000
335.1768	59.3425	0.5496	30.9477	478.2857	2517.1428
335.3292	54.3849	0.8586	31.6385	484.5000	2521.0000
335.4816	55.5059	0.4306	33.3649	489.7143	2499.0000
335.6340	47.4128	0.5038	33.0417	468.0000	2528.0000
335.7864	42.2981	0.5473	31.6606	491.0000	2654.5000
335.9388	44.6986	0.3553	30.7914	530.2857	2521.1428
336.0912	48.4216	0.1616	30.9448	525.0000	2622.0000
336.2436	48.6226	0.2295	30.5929	486.8571	2612.5715
336.3960	51.8353	0.1935	30.7589	509.5000	2627.0000
336.5484	55.1853	0.1890	31.3703	496.5714	2640.5000
336.7008	56.7226	0.2441	32.9578	480.5000	2599.4285
336.8532	55.2553	0.6294	33.5817	439.5000	2616.0000
337.0056	50.2879	0.9120	32.7414	418.8571	2567.4285
337.1580	62.6962	0.8927	31.5932	434.0000	2540.5000
337.3104	72.5582	0.6296	34.0203	452.0000	2373.5000
337.4628	76.5200	0.4605	33.8308	451.0000	2405.1428
337.6152	76.0556	0.4835	32.4384	420.0000	2436.0000
337.7676	84.5218	-0.0505	34.4234	446.2857	2417.7144
337.9200	93.9598	-0.4048	34.2376	421.5000	2376.0000
338.0724	95.6706	-0.4064	33.6557	414.2857	2331.4285
338.2248	91.4209	-0.4125	33.3691	411.5000	2382.0000
338.3772	89.2208	-0.3313	34.7457	400.5000	2327.0000
338.5296	83.7530	0.0066	33.5894	365.1429	2258.2856
338.6820	67.4529	0.8045	31.6145	416.0000	2352.0000
338.8344	57.6566	0.9457	30.8506	488.0000	2411.0000
338.9868	57.6972	0.5048	32.3238	514.8571	2349.1428
339.1392	52.3258	0.3323	30.7605	501.0000	2383.0000
339.2916	44.2199	0.2964	30.5990	546.8571	2601.7144
339.4440	43.3896	0.2168	30.9599	507.0000	2593.5000
339.5964	45.1602	0.1333	29.2111	520.0000	2630.0000
339.7488	45.6147	0.1984	28.7248	522.2857	2618.2856
339.9012	43.5202	0.2929	28.3584	494.5000	2626.0000
340.0536	46.5648	0.3042	28.8034	514.2857	2585.7144
340.2060	48.2182	0.3454	28.8751	523.5000	2578.5000
340.3584	50.7789	0.4183	29.3167	489.1429	2554.0000
340.5108	47.2500	0.4826	29.7229	500.5000	2544.0000
340.6632	43.9029	0.6774	31.1372	504.5714	2620.5715
340.8156	42.8841	0.9642	30.3022	527.5000	2526.0000
340.9680	47.5639	1.0029	30.6341	498.2857	2525.0000
341.1204	49.8895	1.0018	32.1252	493.5000	2434.2856
341.2728	50.4237	0.9988	33.4151	433.0000	2456.0000
341.4252	48.9973	1.0100	32.3867	418.2857	2450.8572
341.5776	49.9785	0.9456	32.3353	416.5000	2420.0000
341.7300	63.5402	0.8677	31.7740	372.0000	2445.0000
341.8824	80.4686	-0.3883	33.5196	380.5000	2352.0000
342.0348	101.9463	1.6047	28.8529	394.0000	2326.0000
342.1872	102.1219	0.4422	32.9497	388.0000	2258.8572
342.3396	94.1415	-0.4425	33.7135	393.0000	2318.0000
342.4920	89.6522	-0.3474	34.3474	409.1429	2320.5000
342.6444	91.4087	-0.4378	34.1124	383.5000	2292.0000
342.7968	93.3935	-0.4453	34.1755	393.0000	2314.0000
342.9492	89.0082	-0.3212	34.6870	410.8571	2322.5000
343.1016	89.0611	-0.3203	34.6556	387.5000	2297.7144
343.2540	87.3230	-0.2291	34.8738	401.0000	2288.0000
343.4064	88.9588	-0.3097	35.5998	440.5714	2342.2856
343.5588	87.0155	-0.2041	34.6712	459.5000	2292.0000
343.7112	82.5224	0.0938	34.8426	454.2857	2333.1428
343.8636	69.0632	0.7508	34.6485	437.0000	2320.5000
344.0160	59.9871	0.9284	33.0054	461.1429	2466.2856
344.1684	50.8022	1.0004	30.7846	465.0000	2428.0000
344.3208	51.9377	0.9873	31.5144	459.5000	2516.5000
344.4732	55.6503	0.9562	30.8616	429.1429	2396.5715
344.6256	56.1430	0.5744	31.0085	481.0000	2439.0000
344.7780	52.5676	0.3633	30.9841	483.4286	2485.7144
344.9304	49.0631	0.2680	31.7055	509.0000	2495.5000
345.0828	43.9811	0.3187	32.2699	506.8571	2497.5000
345.2352	44.8299	0.2038	32.5913	496.5000	2568.5715
345.3876	45.3553	0.1148	31.3367	511.0000	2516.5000
345.5400	47.0623	0.0593	30.2630	501.7143	2646.8572
345.6924	44.6168	0.1059	30.0070	523.5000	2645.0000
345.8448	44.7083	0.0339	30.1191	506.5000	2669.0000
345.9972	46.0548	0.0241	29.8299	504.5714	2601.1428
346.1496	47.9469	-0.0534	30.5978	534.0000	2609.0000
346.3020	46.8977	0.0682	30.7724	523.4286	2673.0000
346.4544	46.8490	0.0550	30.8503	498.0000	2628.0000
346.6068	44.7418	0.1099	30.9958	510.0000	2667.5000
346.7592	43.4185	0.1828	31.5943	500.5714	2733.7144
346.9116	46.0360	0.1127	31.7002	499.0000	2615.5000
347.0640	44.2740	0.0485	30.8211	551.0000	2613.5000
347.2164	43.4737	0.0294	29.1429	549.1429	2653.7144
347.3688	41.1431	0.0834	27.0179	564.0000	2649.5000
347.5212	44.0579	-0.0750	25.5003	553.1429	2684.0000
347.6736	41.5740	0.0120	23.7429	561.0000	2670.5000
347.8260	40.5633	0.0692	22.2400	549.5000	2717.5000
347.9784	35.4932	0.2152	21.6118	576.5714	2603.4285
348.1308	40.4600	0.1597	22.1025	575.0000	2649.0000
348.2832	40.7557	0.1857	22.8957	524.5714	2533.5000
348.4356	39.9051	0.2609	24.1800	472.0000	2685.1428
348.5880	34.0970	0.4460	26.2026	513.5000	2651.5000
348.7404	40.6759	0.2702	28.2214	535.4286	2657.1428
348.8928	47.9440	0.0693	29.2877	490.5000	2581.0000
349.0452	48.5322	0.0024	27.4577	505.1429	2589.7144
349.1976	44.1085	0.0936	27.8146	525.5000	2619.5000
349.3500	41.0019	0.1106	29.4219	533.7143	2581.5000
349.5024	40.3295	0.1227	30.0773	533.5000	2618.8572
349.6548	42.9018	0.1038	29.4232	521.5000	2605.0000
349.8072	45.9191	0.0157	30.0748	509.7143	2614.5000
349.9596	47.9096	-0.0322	28.6183	553.0000	2672.0000
350.1120	46.5212	0.0389	27.0640	502.0000	2632.5000
350.2644	45.0255	0.1829	26.1497	512.0000	2712.0000
350.4168	46.3387	0.2069	26.7031	501.5000	2610.8572
350.5692	55.0372	0.2540	27.5038	493.5000	2624.5000
350.7216	61.6846	0.3257	28.9479	469.7143	2604.0000
350.8740	67.4070	0.7838	28.2322	489.0000	2622.0000
351.0264	62.0456	0.3736	30.7890	501.0000	2541.0000
351.1788	61.7541	0.1924	30.7643	485.7143	2580.0000
351.3312	56.4123	0.1006	31.0033	476.0000	2438.5000
351.4836	50.8673	0.2493	31.5112	469.1429	2582.2856
351.6360	43.9095	0.3015	32.1715	547.5000	2598.5000
351.7884	48.9597	0.2327	31.0095	498.2857	2575.0000
351.9408	49.1170	0.2771	30.5027	477.0000	2574.8572
352.0932	48.5769	0.5355	30.2095	513.5000	2636.0000
352.2456	44.4005	0.8137	28.4632	526.8571	2519.4285
352.3980	46.7242	0.7533	28.0227	537.0000	2576.5000
352.5504	46.9963	1.0344	27.7279	498.2857	2541.5000
352.7028	46.6743	1.0406	29.0553	465.5000	2493.1428
352.8552	40.2347	1.1133	28.0239	465.0000	2552.5000
353.0076	39.1599	0.9809	29.0110	495.4286	2561.7144
353.1600	43.7223	0.7546	31.3249	485.5000	2521.5000
353.3124	50.1388	0.7722	31.4331	505.7143	2505.5000
353.4648	48.1229	0.8353	30.1857	469.5000	2496.5715
353.6172	53.9516	0.7226	31.2553	516.0000	2501.0000
353.7696	50.7118	0.8742	30.1511	498.8571	2437.1428
353.9220	50.3271	1.0010	28.4044	467.5000	2514.0000
354.0744	51.5322	0.7291	28.0430	510.5000	2521.5000
354.2268	52.3489	0.6329	28.5847	471.4286	2537.7144
354.3792	52.4535	0.5135	29.3698	478.5000	2487.0000
354.5316	51.0046	0.5480	30.1128	499.4286	2542.5000
354.6840	47.2368	0.7533	30.0255	479.0000	2470.2856
354.8364	50.2593	0.8026	30.3087	495.0000	2487.0000
354.9888	53.9855	0.3170	31.9362	480.0000	2546.2856
355.1412	54.8984	0.1718	30.3779	515.5000	2500.0000
355.2936	49.7121	0.1991	30.5450	490.2857	2549.0000
355.4460	47.7682	0.0671	29.8003	506.0000	2546.8572
355.5984	46.7053	0.0559	30.5266	512.0000	2492.5000
355.7508	43.1903	0.2177	30.1171	511.4286	2516.5715
355.9032	39.0476	0.3406	31.2852	530.5000	2596.5000
356.0556	39.6714	0.4095	30.0065	522.5000	2571.0000
356.2080	44.4169	0.4652	30.3864	486.2857	2561.1428
356.3604	46.7235	0.5162	30.1491	464.5000	2592.0000
356.5128	50.7599	0.5421	29.5649	487.4286	2585.7144
356.6652	51.8661	0.5641	29.2586	478.0000	2468.0000
356.8176	46.2285	0.6192	29.1598	516.0000	2538.5000
356.9700	39.3091	1.1292	27.3367	492.5714	2548.5715
357.1224	48.4307	1.0176	27.4972	504.5000	2490.5000
357.2748	48.9910	1.0123	28.9841	484.5714	2521.5000
357.4272	52.1903	0.9862	29.7256	484.5000	2586.8572
357.5796	47.9968	1.0187	30.1658	424.0000	2474.5000
357.7320	51.1399	0.6203	31.0542	458.2857	2417.1428
357.8844	42.8710	0.5014	31.2153	513.5000	2555.0000
358.0368	41.8717	0.4935	29.4689	498.0000	2528.5000
358.1892	44.5804	0.3757	28.7186	531.4286	2613.1428
358.3416	43.2303	0.4588	28.7332	491.5000	2543.5000
358.4940	44.8159	0.4197	28.3750	537.7143	2588.5715
358.6464	39.7889	0.5390	28.7452	513.5000	2563.0000
358.7988	40.1474	0.6072	28.5229	503.4286	2591.5000
358.9512	41.7631	0.5970	29.3083	502.5000	2502.2856
359.1036	46.2069	0.3674	28.7562	509.0000	2476.5000
359.2560	42.7620	0.3575	29.6826	514.8571	2547.4285
359.4084	38.9208	0.4144	29.5189	497.5000	2498.0000
359.5608	39.9787	0.3066	30.9669	509.0000	2573.0000
359.7132	42.9514	0.3082	30.3850	529.1429	2553.7144
359.8656	43.9523	0.2792	30.5474	497.5000	2551.0000
360.0180	40.5882	0.3363	29.1530	513.1429	2671.4285
360.1704	39.8421	0.2716	29.8575	521.5000	2666.5000
360.3228	44.4207	0.1074	28.8699	548.0000	2629.5000
360.4752	46.0193	0.0384	28.9563	488.0000	2648.5715
360.6276	48.7837	0.0169	29.3614	492.5000	2661.5000
360.7800	56.5708	-0.1266	30.8365	502.2857	2658.8572
360.9324	71.8848	-0.3808	30.6034	450.0000	2430.0000
361.0848	81.3975	0.1500	31.8386	471.5000	2389.5000
361.2372	80.3003	0.2298	32.5242	503.4286	2440.0000
361.3896	63.2745	0.8802	31.9592	479.5000	2425.5000
361.5420	47.7813	0.7825	33.8294	502.5000	2593.0000
361.6944	36.7739	0.6919	32.7262	501.1429	2548.5715
361.8468	45.1448	0.4338	31.9814	504.0000	2597.0000
361.9992	48.1040	0.2779	31.7517	495.4286	2541.5000
362.1516	49.8572	0.3011	30.8282	517.0000	2642.2856
362.3040	49.6818	0.3827	30.0696	501.0000	2628.0000
362.4564	56.1385	0.4631	30.6455	488.5714	2469.7144
362.6088	53.4234	0.5845	31.0997	461.5000	2501.5000
362.7612	49.3257	0.8908	31.0114	469.0000	2634.0000
362.9136	57.1444	0.7317	31.7256	479.4286	2510.8572
363.0660	61.3542	0.6966	30.9517	507.5000	2514.0000
363.2184	60.3279	0.5964	30.6808	446.8571	2475.5000
363.3708	56.2222	0.6933	30.8076	467.5000	2533.1428
363.5232	52.7977	0.8929	29.1236	480.5000	2484.0000
363.6756	58.0107	0.7688	29.3379	490.2857	2523.4285
363.8280	57.2435	0.5260	31.0704	483.5000	2471.5000
363.9804	55.5970	0.5735	31.5991	488.0000	2493.7144
364.1328	45.7078	0.8022	31.2242	490.0000	2447.5000
364.2852	46.7318	0.5119	31.9875	516.5000	2515.0000
364.4376	46.5407	0.2681	32.3382	540.5714	2512.0000
364.5900	46.1989	0.2097	32.3453	498.5000	2600.0000
364.7424	47.8301	0.0919	31.2787	496.0000	2596.0000
364.8948	48.4500	0.0019	31.2063	526.2857	2607.4285
365.0472	48.7912	-0.1008	30.7331	496.0000	2711.0000
365.1996	47.9466	-0.0069	30.6425	502.8571	2661.5000
365.3520	48.0530	0.0308	29.9130	485.0000	2595.4285
365.5044	45.8350	0.0521	29.0565	502.5000	2641.5000
365.6568	46.3516	0.0305	29.6288	489.1429	2609.0000
365.8092	46.7615	0.0760	29.4016	539.0000	2674.2856
365.9616	46.6494	-0.0144	29.5219	512.5000	2640.5000
366.1140	46.4268	-0.0389	29.5529	525.7143	2641.7144
366.2664	44.2102	0.0189	29.2965	479.0000	2611.5000
366.4188	41.4492	0.1123	27.0857	510.8571	2674.5000
366.5712	41.8544	0.1532	27.6183	542.5000	2644.0000
366.7236	41.6425	0.3123	26.6079	518.0000	2628.5000
366.8760	44.6226	0.3504	25.6117	541.1429	2683.4285
367.0284	42.8748	0.6318	25.9404	534.5000	2592.0000
367.1808	40.8369	0.8112	26.2322	526.2857	2613.0000
367.3332	35.6389	1.2293	24.8531	520.5000	2686.8572
367.4856	42.8957	0.6696	27.6765	540.5000	2673.5000
367.6380	49.1216	0.5946	28.7318	489.7143	2571.4285
367.7904	57.4593	0.4750	29.4257	471.0000	2595.0000
367.9428	62.9495	0.4536	31.3476	445.7143	2523.0000
368.0952	75.1044	0.3273	33.6911	412.5000	2543.4285
368.2476	82.8523	0.0574	35.4546	442.0000	2376.5000
368.4000	85.5482	-0.1090	36.3537	416.0000	2430.2856
368.5524	86.5968	-0.1661	36.9954	502.5000	2360.5000
368.7048	90.6507	-0.3867	35.4568	508.0000	2367.4285
368.8572	71.6812	0.4606	32.1430	480.5714	2334.0000
369.0096	52.8521	0.5579	31.1421	468.5714	2486.0000
369.1620	39.6271	0.4818	30.9454	496.5000	2609.7144
369.3144	43.2653	0.4025	29.2017	546.5000	2625.0000
369.4668	46.2641	0.2798	29.7448	520.5714	2645.1428
369.6192	45.9303	0.2585	30.2199	513.5000	2625.5000
369.7716	45.8815	0.2025	29.5319	537.7143	2562.5000
369.9240	43.7423	0.1917	30.1299	516.5000	2613.1428
370.0764	42.3766	0.1426	30.8886	519.5000	2689.5000
370.2288	44.9414	0.0922	30.3575	560.0000	2754.2856
370.3812	45.6020	0.0191	30.1384	510.0000	2630.5000
370.5336	46.5531	0.0478	29.5007	530.0000	2713.0000
370.6860	46.7620	0.1683	29.3548	531.4286	2637.7144
370.8384	49.5069	0.1564	29.6770	488.5000	2626.0000
370.9908	45.5339	0.2313	31.0658	527.0000	2609.5000
371.1432	38.6518	0.4813	30.6464	537.1429	2537.7144
371.2956	34.0475	0.5672	31.1969	505.0000	2551.0000
371.4480	38.4224	0.3572	31.9054	499.4286	2563.4285
371.6004	38.6881	0.4010	32.9591	516.5000	2598.0000
371.7528	45.3742	0.4306	30.9610	505.0000	2618.5000
371.9052	52.1250	0.3884	30.5791	486.2857	2492.5715
372.0576	56.8981	0.3270	32.0085	505.0000	2459.0000
372.2100	45.7246	1.0411	31.3790	469.5000	2537.0000
372.3624	41.2342	1.0944	30.2017	473.1429	2532.5715
372.5148	42.5431	1.0764	32.9047	474.0000	2456.0000
372.6672	51.8691	0.7112	34.7513	485.7143	2438.8572
372.8196	50.7875	0.9944	33.8764	465.0000	2415.0000
372.9720	59.1282	0.6866	33.3547	441.0000	2405.5000
373.1244	48.8427	0.9772	31.9154	454.8571	2428.0000
373.2768	51.9910	0.9844	32.7851	464.0000	2471.5000
373.4292	46.5260	1.0419	31.7584	467.4286	2353.5000
373.5816	47.8845	1.0280	30.0240	496.0000	2428.0000
373.7340	40.7181	1.1091	28.1624	530.0000	2485.5000
373.8864	53.6327	0.3106	30.8540	528.0000	2407.4285
374.0388	45.3955	0.3984	28.6549	512.0000	2393.5000
374.1912	39.2759	0.3745	27.6664	483.4286	2623.5000
374.3436	34.1214	0.4734	28.9015	542.0000	2620.5715
374.4960	41.4887	0.3130	30.3140	537.0000	2529.5000
374.6484	40.4418	0.4005	29.7449	529.7143	2555.4285
374.8008	44.6343	0.3427	29.6741	520.5000	2635.0000
374.9532	45.5425	0.4030	29.9728	514.0000	2569.0000
375.1056	45.5359	0.3935	30.0516	526.2857	2629.0000
375.2580	45.7369	0.3229	30.1208	528.0000	2585.7144
375.4104	45.6629	0.3908	30.4917	522.5000	2544.5000
375.5628	45.0993	0.3685	30.5742	497.7143	2648.0000
375.7152	45.7923	0.3689	32.1161	519.0000	2639.4285
375.8676	46.8101	0.3544	31.7550	478.5000	2568.0000
376.0200	44.5509	0.4040	31.3238	486.2857	2574.2856
376.1724	45.3863	0.3043	32.6702	536.0000	2555.0000
376.3248	43.9400	0.3942	34.4163	560.0000	2548.5000
376.4772	43.4606	0.3712	32.6183	492.0000	2596.5715
376.6296	43.5823	0.3597	31.6055	567.5000	2587.0000
376.7820	46.5666	0.2203	32.3330	566.2857	2636.0000
376.9344	41.5747	0.3657	29.7976	516.0000	2598.2856
377.0868	35.9748	0.3962	28.1240	556.5000	2711.5000
377.2392	35.5325	0.3974	28.6538	572.5714	2642.0000
377.3916	37.4732	0.3755	28.6728	558.5000	2574.8572
377.5440	37.5678	0.4963	27.4972	527.5000	2697.0000
377.6964	40.5480	0.4469	29.0567	531.4286	2605.5000
377.8488	45.3118	0.4920	29.3279	521.0000	2571.4285
378.0012	43.7597	0.5558	29.0567	522.5000	2614.0000
378.1536	45.5390	0.4977	30.5097	482.2857	2634.0000
378.3060	42.0527	0.5731	31.2476	515.0000	2587.4285
378.4584	41.9383	0.5861	31.5481	522.0000	2620.5000
378.6108	41.2242	0.4762	31.5787	541.1429	2553.1428
378.7632	43.1241	0.4139	31.4810	520.5000	2586.0000
378.9156	41.4823	0.3277	30.9787	534.8571	2578.5000
379.0680	43.4474	0.2457	31.7134	526.0000	2601.1428
379.2204	42.1588	0.2122	30.9339	517.0000	2647.5000
379.3728	42.6476	0.1741	31.4711	528.0000	2670.5000
379.5252	42.1497	0.1856	31.0415	544.5000	2584.0000
379.6776	39.7254	0.2668	31.2738	514.5000	2665.5000
379.8300	38.1286	0.3028	30.2188	538.8571	2684.5000
379.9824	38.1716	0.3643	30.8869	506.5000	2674.8572
380.1348	38.5537	0.4309	29.7261	532.5000	2596.0000
380.2872	41.4411	0.2710	31.1622	556.5000	2593.0000
380.4396	40.8170	0.2853	30.2691	539.4286	2626.0000
380.5920	40.9922	0.3232	30.7538	550.5000	2659.4285
380.7444	41.4407	0.2815	30.4989	539.0000	2625.5000
380.8968	40.9239	0.2815	30.8157	518.2857	2580.0000
381.0492	39.5316	0.4108	28.9823	520.5000	2585.1428
381.2016	38.9341	0.4295	29.4509	539.0000	2582.5000
381.3540	41.8491	0.4184	29.1251	546.8571	2639.4285
381.5064	52.4242	0.4009	29.5969	481.0000	2544.5000
381.6588	67.4721	0.3300	31.7044	449.0000	2400.0000
381.8112	77.7023	0.3825	34.6531	410.2857	2427.0000
381.9636	84.5053	-0.0215	38.3824	399.0000	2321.7144
382.1160	79.1779	0.3086	40.1879	422.5000	2332.5000
382.2684	73.8253	0.5846	40.1156	414.5000	2337.5000
382.4208	67.9396	0.7875	38.7453	443.4286	2259.0000
382.5732	62.2761	0.8955	38.4021	440.5000	2330.2856
382.7256	52.4367	0.9804	36.9749	450.5000	2362.5000
382.8780	44.4384	1.0685	33.2989	486.0000	2423.0000
383.0304	37.5469	1.1929	33.2760	480.5714	2448.0000
383.1828	40.8460	0.7344	34.5539	511.5000	2511.4285
383.3352	42.4802	0.5058	32.8448	513.0000	2448.0000
383.4876	42.4667	0.4192	32.8336	514.8571	2494.0000
383.6400	36.8927	0.4394	33.6012	527.0000	2541.7144
383.7924	39.1875	0.3056	31.5567	537.5000	2598.5000
383.9448	41.2571	0.1573	31.0159	517.5000	2571.5000
384.0972	42.7027	0.0637	31.2924	514.2857	2676.0000
384.2496	42.8491	0.0227	30.7169	518.0000	2613.7144
384.4020	44.2236	-0.1305	30.5139	508.0000	2721.0000
384.5544	45.4519	-0.1505	30.9137	529.7143	2654.5000
384.7068	44.9003	-0.0918	30.9217	512.5000	2681.1428
384.8592	44.4911	0.0220	30.5351	528.5000	2627.5000
385.0116	42.2542	0.0968	30.7361	520.0000	2627.0000
385.1640	41.8434	0.1727	31.1367	551.5000	2615.4285
385.3164	40.7419	0.2153	31.3276	512.5000	2576.5000
385.4688	40.5847	0.2834	31.8070	529.1429	2578.5000
385.6212	39.2383	0.2584	31.3375	525.0000	2653.7144
385.7736	42.1966	0.1973	31.3775	545.5000	2602.0000
385.9260	43.8511	0.2028	30.1741	509.7143	2555.0000
386.0784	43.8015	0.2600	29.7796	508.0000	2606.8572
386.2308	42.7729	0.2522	29.0580	531.5000	2608.5000
386.3832	44.3538	0.1294	30.1317	504.0000	2605.5000
386.5356	45.3283	0.1698	29.7788	513.1429	2587.4285
386.6880	46.3647	0.1930	30.4986	533.0000	2576.5000
386.8404	45.0409	0.2433	30.8967	538.2857	2608.0000
386.9928	43.6391	0.3179	32.4698	511.0000	2556.5715
387.1452	36.6217	0.7787	32.0101	524.5000	2592.0000
387.2976	39.4788	0.8491	31.8109	483.5000	2540.0000
387.4500	49.4855	0.9309	31.4369	444.5714	2617.5000
387.6024	70.8448	0.7101	33.1571	420.0000	2465.7144
387.7548	88.9217	-0.3105	33.8255	397.0000	2320.5000
387.9072	94.5694	-0.4365	32.6542	402.8571	2286.0000
388.0596	98.5660	-0.1915	34.0351	410.5000	2288.5715
388.2120	93.5768	-0.0783	33.9932	409.5000	2272.5000
388.3644	70.5712	-0.4786	32.8858	396.5714	2519.0000
388.5168	53.9529	-0.0720	32.5958	502.0000	2889.1428
388.6692	53.4649	-0.2432	32.7874	510.0000	2802.0000
388.8216	58.6910	-0.4117	31.3164	520.5000	2778.0000
388.9740	56.5275	-0.3083	31.6230	517.7143	2878.8572
389.1264	60.2831	-0.4385	31.2442	534.5000	2864.5000
389.2788	62.2318	-0.4182	30.5875	489.7143	2752.0000
389.4312	61.7749	-0.4102	30.5313	507.5000	2889.1428
389.5836	60.4718	-0.4566	30.6690	526.0000	2765.0000
389.7360	64.1972	-0.5482	29.9850	522.8571	2783.4285
389.8884	61.1973	-0.3553	30.3030	497.0000	2719.0000
390.0408	58.1346	-0.0973	30.1820	537.7143	2805.5000
390.1932	54.8785	0.0164	30.6818	506.5000	2759.4285
390.3456	55.6421	-0.0621	30.7287	523.5000	2731.0000
390.4980	54.5859	-0.1706	31.3787	506.8571	2704.5715
390.6504	53.7587	-0.1974	31.1573	474.0000	2728.5000
390.8028	50.8402	-0.2248	31.0817	525.7143	2718.5000
390.9552	48.2213	-0.0647	28.9338	537.5000	2597.7144
391.1076	44.7280	0.1630	27.5186	528.0000	2581.5000
391.2600	43.8181	0.3250	26.5353	509.0000	2559.0000
391.4124	39.4435	0.5310	25.5743	525.1429	2560.5000
391.5648	33.2741	1.3135	22.7964	499.5000	2633.7144
391.7172	35.1589	1.2903	24.0226	521.0000	2536.0000
391.8696	36.7843	1.2267	26.2445	487.4286	2549.1428
392.0220	40.0441	1.1261	27.6645	484.0000	2491.5000
392.1744	39.8377	1.1163	28.9504	507.5000	2487.0000
392.3268	44.1145	0.8822	31.0168	501.1429	2554.8572
392.4792	39.1985	1.1297	29.9374	495.0000	2489.5000
392.6316	42.4849	0.6781	30.9479	513.1429	2501.0000
392.7840	47.1219	0.3729	30.6506	496.5000	2509.1428
392.9364	46.4824	0.3855	30.3712	500.5000	2473.0000
393.0888	45.1075	0.4450	29.2278	480.0000	2581.5000
393.2412	49.1224	0.4536	29.6149	463.4286	2494.0000
393.3936	54.9889	0.2904	29.3837	477.0000	2388.0000
393.5460	60.4498	0.1871	31.0388	443.0000	2357.0000
393.6984	61.4337	0.3844	31.0690	412.5714	2406.0000
393.8508	67.1111	0.5616	31.5349	455.0000	2484.5715
394.0032	74.4040	0.3966	33.0565	454.5000	2502.5000
394.1556	82.9231	0.0562	35.0188	455.4286	2449.1428
394.3080	78.1881	0.3593	34.3749	434.5000	2347.0000
394.4604	68.8101	0.7567	33.7465	421.0000	2398.5000
394.6128	69.2150	0.7364	34.5663	385.7143	2406.8572
394.7652	79.3975	0.2776	35.2576	441.5000	2340.5000
394.9176	93.8719	-0.4427	34.4978	379.4286	2304.0000
395.0700	94.7727	-0.4330	35.1503	394.0000	2236.0000
395.2224	94.7516	-0.4324	37.6555	406.5000	2297.5000
395.3748	94.8767	-0.4265	37.9895	390.8571	2270.8572
395.5272	98.9469	-0.1083	38.6728	364.0000	2279.5000
395.6796	104.7612	1.3389	35.9609	393.5000	2292.0000
395.8320	104.6842	2.0000	34.1994	396.0000	2301.1428
395.9844	109.3763	2.0000	32.6291	379.0000	2358.0000
396.1368	106.6133	2.0000	32.0087	390.2857	2301.0000
396.2892	107.3488	2.0000	31.4663	376.0000	2352.5715
396.4416	101.8274	0.3863	36.0717	376.0000	2272.5000
396.5940	106.0049	1.7743	31.0371	362.8571	2263.5000
396.7464	101.6780	0.3057	34.7184	393.0000	2260.5715
396.8988	99.7822	-0.0420	34.9477	386.0000	2325.0000
397.0512	97.8588	-0.2749	35.4675	381.1429	2212.0000
397.2036	95.2002	-0.4237	36.0589	364.5000	2197.1428
397.3560	91.9542	-0.4239	35.8925	396.0000	2290.5000
397.5084	96.1876	-0.3818	36.7799	402.8571	2271.4285
397.6608	95.5028	-0.4148	36.5640	381.5000	2323.0000
397.8132	96.5203	-0.3632	37.5014	382.8571	2306.5000
397.9656	89.6158	-0.3404	36.8730	408.5000	2333.1428
398.1180	79.5044	0.2827	36.7262	411.5000	2254.5000
398.2704	63.5663	0.8758	34.0844	417.7143	2334.8572
398.4228	59.4929	0.7147	32.9186	460.0000	2374.5000
398.5752	62.3607	0.7145	31.5933	519.5000	2353.0000
398.7276	59.5316	0.6096	30.5580	481.1429	2318.2856
398.8800	51.6119	0.3944	30.3014	492.5000	2459.0000
399.0324	45.2314	0.3332	29.8681	533.1429	2567.5000
399.1848	46.8198	0.3222	29.5073	494.0000	2558.2856
399.3372	46.7887	0.1509	28.8974	508.5000	2585.0000
399.4896	48.2619	0.0960	29.0574	502.8571	2521.0000
399.6420	49.3900	0.1645	29.7794	497.5000	2598.2856
399.7944	51.3422	0.2870	30.7579	474.5000	2554.5000
399.9468	51.4104	0.2300	31.9243	480.0000	2516.5715
400.0992	50.6843	0.3893	32.4958	477.0000	2484.0000
400.2516	41.9344	0.8946	31.2183	513.1429	2454.0000
400.4040	44.6684	0.6534	31.1151	521.0000	2499.4285
400.5564	44.3824	0.7611	29.7271	495.0000	2438.5000
400.7088	47.7519	1.0346	29.3945	451.5000	2432.5000
400.8612	51.9120	1.0020	29.1661	457.7143	2460.0000
401.0136	53.0360	0.9858	30.6617	436.5000	2486.8572
401.1660	56.4851	0.9577	31.7607	423.5000	2467.0000
401.3184	68.6206	0.7602	33.4216	473.7143	2385.0000
401.4708	82.4007	0.1031	34.4012	406.5000	2336.0000
401.6232	91.4778	-0.4106	35.3018	391.5000	2290.0000
401.7756	90.7205	-0.3895	35.9257	404.0000	2304.5000
401.9280	86.8827	-0.1942	37.6274	396.0000	2308.5715
402.0804	87.2263	-0.2114	38.6564	402.0000	2242.5000
402.2328	86.7805	-0.1811	38.3720	425.1429	2325.0000
402.3852	91.7961	-0.4140	39.0105	384.5000	2249.1428
402.5376	94.2788	-0.4413	38.3738	378.5000	2292.0000
402.6900	97.1697	-0.3257	37.5478	426.5000	2252.5000
402.8424	101.6521	0.3229	37.5412	394.8571	2295.4285
402.9948	95.5843	-0.4100	37.3988	393.5000	2281.5000
403.1472	77.4675	0.4170	35.0049	379.4286	2384.5000
403.2996	64.6783	0.8647	31.8053	428.0000	2361.1428
403.4520	63.1090	0.8836	31.1984	461.5000	2361.5000
403.6044	63.4627	0.8684	31.3398	475.4286	2336.5715
403.7568	59.0427	0.8167	32.2188	478.0000	2415.5000
403.9092	43.4993	0.9544	30.7079	493.1429	2492.0000
404.0616	37.1061	1.2063	29.8123	527.0000	2570.0000
404.2140	36.4594	1.2443	29.6493	501.0000	2578.2856
404.3664	43.7813	0.6944	29.5436	479.0000	2516.0000
404.5188	42.0148	0.7353	28.0954	505.1429	2601.1428
404.6712	43.1913	0.8987	27.8174	527.5000	2640.0000
404.8236	52.0546	0.7932	28.6733	502.8571	2505.5000
404.9760	61.9271	0.7260	29.5345	443.0000	2433.7144
405.1284	58.4867	0.9452	29.8612	467.5000	2458.0000
405.2808	60.9698	0.9139	31.7100	433.1429	2552.5715
405.4332	58.6697	0.8123	32.8605	428.0000	2430.0000
405.5856	55.2701	0.9623	33.0465	476.5714	2467.5000
405.7380	49.9646	0.9031	33.3753	462.0000	2445.1428
405.8904	55.7587	0.7961	33.4627	460.5000	2463.0000
406.0428	59.9616	0.7542	32.6567	455.4286	2434.5000
406.1952	60.9381	0.9103	33.3986	470.5000	2451.4285
406.3476	59.0895	0.5038	33.2031	470.0000	2439.0000
406.5000	59.3108	0.4308	31.6033	424.5714	2461.1428
406.6524	57.9638	0.4536	32.7894	473.5000	2449.0000
406.8048	56.6530	0.6463	33.1933	457.1429	2470.0000
406.9572	60.0762	0.5108	33.2921	436.0000	2477.1428
407.1096	65.4596	0.5324	34.6181	396.5000	2353.5000
407.2620	73.5202	0.5820	36.8139	385.7143	2436.5000
407.4144	84.0516	-0.0144	36.6679	406.0000	2361.7144
407.5668	99.0058	-0.1229	36.2047	420.5000	2279.0000
407.7192	100.7749	0.1630	35.0965	375.4286	2323.0000
407.8716	95.8207	-0.3978	36.2886	375.0000	2330.2856
408.0240	96.9200	-0.3359	35.4912	365.5000	2233.0000
408.1764	91.8089	-0.4225	37.0177	381.7143	2299.0000
408.3288	93.7991	-0.4428	35.4253	405.0000	2324.0000
408.4812	98.5082	-0.2054	35.6989	377.0000	2303.5000
408.6336	103.5824	0.8640	33.1565	370.8571	2320.0000
408.7860	100.2411	0.0302	34.6770	393.0000	2318.2856
408.9384	97.6286	-0.3049	34.5071	387.5000	2264.5000
409.0908	91.0894	-0.3883	35.7827	406.2857	2244.0000
409.2432	89.0060	-0.3067	36.7852	425.5000	2315.0000
409.3956	90.8226	-0.3867	36.8127	405.1429	2316.0000
409.5480	92.9543	-0.4390	36.4626	438.5000	2288.0000
409.7004	95.1929	-0.4222	35.5986	408.0000	2317.1428
409.8528	81.9389	0.1216	34.6195	393.5000	2297.0000
410.0052	66.5854	0.8174	32.9483	454.0000	2410.0000
410.1576	56.6525	0.9581	32.0313	477.1429	2408.5000
410.3100	49.4892	1.0097	32.3874	478.0000	2418.2856
410.4624	55.2846	0.9566	33.2425	459.5000	2450.8572
410.6148	57.4565	0.6225	33.6781	430.2857	2383.5000
410.7672	57.5446	0.5139	33.9542	459.0000	2491.5000
410.9196	54.3337	0.3315	34.1884	448.0000	2457.5000
411.0720	49.5511	0.4349	31.7353	480.0000	2448.0000
411.2244	46.9518	0.3359	30.5409	467.0000	2430.0000
411.3768	50.9765	0.3129	31.6641	505.1429	2382.8572
411.5292	50.5023	0.2098	31.6049	519.5000	2370.5000
411.6816	51.6523	0.1175	31.5633	492.5000	2606.5000
411.8340	51.0107	0.0849	32.0810	482.2857	2610.0000
411.9864	52.0656	0.0159	31.2298	506.0000	2592.0000
412.1388	51.3924	0.0390	29.9549	543.5000	2606.5000
412.2912	53.3874	-0.2939	28.9425	517.7143	2541.1428
412.4436	48.5440	-0.1984	28.9850	499.5000	2554.5000
412.5960	39.5013	-0.0695	26.4706	478.8571	2704.5000
412.7484	34.7324	-0.0289	25.2596	575.0000	2824.0000
412.9008	36.3850	-0.2125	24.3129	547.0000	2754.0000
413.0532	37.0743	-0.1929	23.8283	598.8571	2760.5715
413.2056	38.1297	-0.1885	22.9150	594.5000	2784.0000
413.3580	39.2965	-0.1544	23.4049	590.8571	2755.5000
413.5104	40.3877	-0.0789	24.7161	507.5000	2743.5000
413.6628	39.4811	0.0940	24.9269	404.5000	2731.4285
413.8152	35.3302	0.2680	25.3924	419.5000	2708.5000
413.9676	49.8499	0.0685	26.9427	403.4286	2731.0000
414.1200	70.6633	-0.4401	28.4400	406.0000	2382.8572
414.2724	107.4801	2.0000	22.7930	402.5000	2339.0000
414.4248	96.6176	-0.3711	30.1894	374.0000	2190.5000
414.5772	95.6935	-0.4100	32.3665	392.0000	2282.2856
414.7296	92.2663	-0.4231	32.5556	386.5000	2227.5000
414.8820	95.2402	-0.4216	32.7175	382.5000	2260.0000
415.0344	92.6947	-0.4340	32.9511	379.4286	2282.0000
415.1868	94.0665	-0.4415	35.2291	403.0000	2289.7144
415.3392	94.2474	-0.4396	35.8353	389.0000	2268.5000
415.4916	94.8894	-0.4295	36.4490	366.2857	2278.2856
415.6440	97.8172	-0.2780	36.4869	398.5000	2307.0000
415.7964	96.1633	-0.3860	35.4322	387.5000	2269.5000
415.9488	94.1069	-0.4411	33.7564	378.2857	2274.0000
416.1012	92.5731	-0.4350	31.1857	376.5000	2258.2856
416.2536	98.4822	-0.1577	30.9947	461.5000	2328.0000
416.4060	107.5027	2.0000	24.8059	484.0000	2329.0000
416.5584	89.4916	-0.0880	31.5247	489.7143	2306.2856
416.7108	64.0419	-0.3486	31.2246	515.5000	2446.5000
416.8632	48.4990	0.1919	31.8776	464.5714	2705.0000
417.0156	48.7526	0.1581	31.9633	550.5000	2742.5000
417.1680	53.5066	0.0152	30.4069	486.0000	2873.5000
417.3204	55.6870	-0.1179	30.0729	518.5000	2948.5715
417.4728	59.9571	-0.2823	30.1381	518.0000	2908.5000
417.6252	56.8515	-0.2038	30.0412	535.5000	2898.0000
417.7776	56.9328	-0.1795	29.8898	511.0000	2961.5000
417.9300	56.9692	-0.2042	31.0475	501.1429	2749.5000
418.0824	57.0092	-0.0704	31.0273	460.0000	2707.5000
418.2348	56.1167	0.1645	31.2567	491.5000	2739.5000
418.3872	57.5016	0.1499	31.5895	459.5000	2556.0000
418.5396	56.4915	0.1985	30.2711	478.0000	2522.5000
418.6920	50.2624	0.4345	29.8579	525.7143	2605.0000
418.8444	51.5902	0.4135	30.0312	494.5000	2509.1428
418.9968	54.7642	0.2499	30.0300	475.0000	2517.0000
419.1492	54.5123	0.2653	30.0791	496.0000	2522.5000
419.3016	57.8710	0.2135	30.6213	492.0000	2566.8572
419.4540	61.6304	0.1279	30.1821	504.5000	2496.0000
419.6064	59.5920	0.2588	30.2694	489.1429	2466.2856
419.7588	55.3325	0.3402	30.5640	491.0000	2570.5000
419.9112	51.1530	0.4071	30.1831	494.5000	2531.0000
420.0636	53.8598	0.5359	30.7226	465.1429	2538.8572
420.2160	54.4496	0.4809	30.9073	471.5000	2562.0000
420.3684	54.6193	0.3065	31.0079	504.5000	2485.7144
420.5208	54.7209	0.2754	31.5679	500.6667	2576.5715
420.6732	50.6234	0.3214	31.0513	494.5000	2488.0000
420.8256	51.6418	0.1768	30.1178	512.5714	2549.5000
420.9780	44.7656	0.3155	29.7362	497.0000	2549.7144
421.1304	47.4746	0.2621	26.5455	532.5000	2569.0000
421.2828	48.8402	0.0786	24.8728	589.1429	2556.0000
421.4352	48.3148	0.1955	24.1331	586.0000	2588.0000
421.5876	64.5221	0.0716	24.2444	604.0000	2728.5000
421.7400	81.4460	-0.4146	24.1836	489.7143	2575.0000
421.8924	97.2776	-0.1567	27.0051	407.5000	2698.8572
422.0448	86.1423	-0.1154	30.0212	404.5000	2801.5000
422.1972	96.5779	-0.3650	32.5514	393.7143	2693.7144
422.3496	112.5746	2.0000	28.9456	374.5000	2303.0000
422.5020	106.9859	2.0000	29.1517	394.2857	2299.5000
422.6544	92.5093	-0.3760	34.0688	393.0000	2288.5715
422.8068	89.9832	-0.4653	32.9453	383.0000	2286.5000
422.9592	92.1107	-0.4293	33.0445	378.8571	2282.8572
423.1116	93.3531	-0.3782	33.7287	391.0000	2255.5000
423.2640	94.4379	-0.2111	35.4148	382.2857	2309.0000
423.4164	92.7788	-0.3405	35.2668	427.0000	2337.5000
423.5688	84.6184	-0.4649	35.0732	423.5000	2304.5715
423.7212	73.3029	0.3395	36.0330	434.0000	2402.5000
423.8736	66.4918	0.8095	34.2426	420.0000	2363.5000
424.0260	74.7225	0.5435	33.2419	427.5000	2350.0000
424.1784	83.0099	0.0679	33.6012	373.5000	2380.0000
424.3308	91.0575	-0.3875	33.9896	389.0000	2324.5000
424.4832	92.8522	-0.4376	30.4410	384.5714	2311.0000
424.6356	90.1575	-0.3637	32.0561	401.0000	2290.8572
424.7880	93.1771	-0.4413	32.8465	366.0000	2287.0000
424.9404	94.8017	-0.4299	33.2430	374.8571	2282.5000
425.0928	101.4204	0.3018	33.6227	392.0000	2304.0000
425.2452	98.8936	-0.1617	36.6104	412.5000	2358.2856
425.3976	95.2534	-0.4172	35.9439	368.0000	2336.0000
425.5500	85.1233	-0.2220	35.8934	378.2857	2314.0000
425.7024	73.7811	0.5739	34.1533	448.5000	2358.2856
425.8548	66.7667	0.8020	32.3788	420.0000	2359.5000
426.0072	68.2155	0.6740	33.7469	389.7143	2389.5000
426.1596	80.2476	-0.1817	34.3331	406.5000	2354.2856
426.3120	93.4035	-0.4430	35.3717	397.5000	2275.5000
426.4644	99.0956	0.5436	35.7905	418.8571	2345.0000
426.6168	94.7913	0.0761	37.0436	414.5000	2311.0000
426.7692	90.2676	-0.4619	37.1098	430.5000	2321.7144
426.9216	79.9728	0.0334	36.4985	429.0000	2318.0000
427.0740	69.7824	0.1112	34.9167	438.8571	2408.0000
427.2264	58.9284	0.3334	32.5288	497.5000	2425.7144
427.3788	51.8761	0.6183	32.9297	488.0000	2537.5000
427.5312	55.9791	0.6848	32.6735	407.4286	2547.0000
427.6836	67.3518	0.4229	33.0014	413.5000	2562.2856
427.8360	84.9191	-0.0776	33.7778	375.0000	2527.0000
427.9884	96.5701	-0.3652	35.3026	390.2857	2330.0000
428.1408	99.1878	-0.1091	33.2148	366.5000	2254.2856
428.2932	96.3372	-0.3708	33.0209	382.0000	2266.5000
428.4456	96.1830	-0.3791	33.0081	398.2857	2289.7144
428.5980	96.0412	-0.3860	32.2835	395.0000	2311.0000
428.7504	90.8597	-0.4161	32.6913	401.1429	2325.5000
428.9028	93.1553	-0.4063	33.2561	423.5000	2316.5715
429.0552	93.5529	-0.4429	34.1573	408.0000	2262.5000
429.2076	96.9908	-0.3246	33.9837	403.5000	2282.5000
429.3600	97.0800	-0.3250	34.2784	417.7143	2291.4285
429.5124	88.0814	-0.2659	34.7454	421.5000	2314.0000
429.6648	76.9751	0.4294	33.8395	433.1429	2429.0000
429.8172	67.3262	0.8035	31.3117	452.0000	2467.4285
429.9696	69.4721	0.7518	32.7481	432.0000	2426.5000
430.1220	77.3033	0.4121	34.5753	416.0000	2418.0000
430.2744	83.7923	0.0136	34.0057	387.5000	2318.2856
430.4268	87.5391	-0.2222	34.7636	394.5000	2343.5000
430.5792	85.4813	-0.1050	36.2799	391.4286	2286.5000
430.7316	89.1083	-0.3156	36.1188	405.0000	2285.7144
430.8840	91.3172	-0.4028	35.2825	402.5000	2274.5000
431.0364	94.8257	-0.4305	35.2971	413.7143	2272.5000
431.1888	96.0205	-0.3891	34.7091	411.5000	2308.5715
431.3412	99.9474	0.0122	34.2164	392.5000	2359.5000
431.4936	98.1305	-0.2344	35.1000	393.1429	2309.5000
431.6460	97.0111	-0.3383	35.2504	369.5000	2304.5715
431.7984	95.6889	-0.4061	36.7692	380.5000	2212.0000
431.9508	94.7662	-0.4322	38.0901	396.5714	2295.5000
432.1032	95.9322	-0.4014	38.6819	388.0000	2324.5715
432.2556	98.5317	-0.2016	38.2686	409.0000	2258.0000
432.4080	96.5436	-0.3615	38.3892	403.4286	2273.7144
432.5604	96.5936	-0.3571	36.4268	392.0000	2292.0000
432.7128	94.1771	-0.4396	36.4258	379.0000	2250.0000
432.8652	92.2075	-0.4271	34.4842	383.4286	2256.5715
433.0176	85.2706	-0.0931	35.4474	412.5000	2254.5000
433.1700	88.4691	-0.2887	35.6897	366.5000	2299.5000
433.3224	91.5271	-0.4098	35.4081	394.8571	2238.8572
433.4748	94.6733	-0.4322	34.9673	382.0000	2299.0000
433.6272	92.7140	-0.4372	36.3816	412.5714	2300.5000
433.7796	95.6170	-0.4034	36.9587	381.5000	2341.1428
433.9320	98.3907	-0.1952	34.0264	371.0000	2270.5000
434.0844	102.5982	2.0000	26.8765	389.1429	2213.1428
434.2368	94.7149	-0.2799	33.4481	356.5000	2283.0000
434.3892	93.6405	-0.3514	33.5353	382.0000	2381.5000
434.5416	99.7893	-0.0006	33.0184	400.0000	2254.2856
434.6940	101.9170	0.4324	35.8782	398.0000	2257.0000
434.8464	78.4605	0.3360	36.0386	390.8571	2313.0000
434.9988	63.3463	0.7894	33.0445	438.5000	2457.1428
435.1512	55.7274	0.8233	31.5436	479.5000	2430.0000
435.3036	59.4781	0.6775	31.0865	456.5714	2421.0000
435.4560	58.0878	0.3429	31.4700	460.0000	2448.0000
435.6084	60.5048	0.1647	32.3430	479.0000	2407.5000
435.7608	58.6053	0.0715	33.7975	480.5000	2408.5000
435.9132	54.3038	0.1178	34.6457	462.2857	2601.5000
436.0656	57.4591	0.0495	34.5353	496.5000	2518.5000
436.2180	64.4215	-0.1522	33.5431	504.5000	2460.5715
436.3704	59.8732	0.0109	33.6787	477.5000	2569.0000
436.5228	55.4943	0.1528	32.5264	479.5000	2781.0000
436.6752	57.5409	0.1008	31.5890	510.2857	2796.0000
436.8276	60.3389	-0.0722	32.1931	499.0000	2765.1428
436.9800	58.9426	0.1471	32.0082	514.0000	2763.0000
437.1324	58.3831	0.2427	31.0124	516.0000	2598.0000
437.2848	54.5737	0.3085	30.7055	481.1429	2620.0000
437.4372	51.0438	0.2437	31.3089	493.5000	2740.5000
437.5896	50.8393	0.2027	32.1809	490.5000	2630.2856
437.7420	56.1645	-0.1044	32.2585	486.5000	2520.0000
437.8944	52.9243	-0.0014	33.0268	493.7143	2495.0000
438.0468	50.3032	0.0274	33.0985	453.5000	2579.0000
438.1992	48.8245	0.1429	32.5304	492.5000	2479.5000
438.3516	49.3866	0.0941	31.6057	505.5000	2502.5000
438.5040	49.5946	0.0731	31.4485	477.5000	2580.5715
438.6564	55.7471	-0.0387	30.9810	483.5000	2522.8572
438.8088	57.8058	0.0882	30.6309	458.2857	2483.5000
438.9612	55.3458	0.2264	30.9925	501.7143	2542.8572
439.1136	56.6238	0.2271	30.0703	497.0000	2432.0000
439.2660	56.0334	0.3896	30.2794	465.0000	2434.0000
439.4184	54.7769	0.3856	30.7905	477.1429	2574.0000
439.5708	54.2629	0.3307	30.8438	466.2222	2575.5000
439.7232	54.8984	0.2037	30.9186	485.7143	2596.0000
439.8756	56.1013	0.2753	32.1783	481.0000	2584.0000
440.0280	55.3352	0.0468	32.7191	459.0000	2568.5000
440.1804	54.0918	0.0038	32.0979	494.5000	2568.0000
440.3328	50.5683	0.0517	33.0109	523.4286	2571.0000
440.4852	51.0857	-0.0962	31.8242	494.0000	2489.0000
440.6376	50.9600	-0.2823	31.1477	518.5000	2488.0000
440.7900	47.4705	-0.1514	29.7084	478.0000	2561.0000
440.9424	44.0123	-0.0499	27.9814	519.4286	2651.0000
441.0948	44.8528	-0.1442	26.4934	546.5000	2623.0000
441.2472	43.7256	-0.1439	24.9378	558.0000	2600.0000
441.3996	41.8133	-0.0409	24.1046	605.5000	2635.1111
441.5520	39.0452	0.0521	24.1998	561.1429	2620.5000
441.7044	40.0451	0.0181	25.0301	548.4445	2564.0000
441.8568	39.7219	0.0997	26.0070	542.0000	2578.5000
442.0092	40.0932	0.1548	26.9229	536.5714	2596.5000
442.1616	40.4620	0.1556	26.5780	537.0000	2617.5000
442.3140	41.6801	0.1161	26.9324	570.0000	2646.6667
442.4664	41.6255	0.1129	25.7883	575.4286	2628.5000
442.6188	41.9691	0.1183	24.4069	521.0000	2658.0000
442.7712	40.1059	0.2273	24.1068	559.4286	2644.5000
442.9236	42.0714	0.2418	24.8939	533.5000	2608.5715
443.0760	46.5787	0.3298	24.9452	465.5000	2640.0000
443.2284	55.5592	0.4935	25.4267	471.5000	2522.5000
443.3808	60.4637	0.9098	25.3640	485.1429	2435.5000
443.5332	60.7762	0.9092	27.9702	484.0000	2429.0000
443.6856	58.8289	0.9562	27.5006	472.5000	2434.8572
443.8380	49.6976	1.0088	26.6764	478.5000	2488.5000
443.9904	39.6195	1.1274	25.5336	469.5000	2464.5000
444.1428	38.2239	0.9512	25.3446	532.0000	2497.5000
444.2952	42.7556	0.7114	25.9248	541.0000	2524.5715
444.4476	45.2272	0.4485	26.5262	505.0000	2538.5000
444.6000	42.2739	0.4369	25.1644	526.0000	2557.5000
444.7524	39.5984	0.4468	24.7106	556.0000	2506.5000
444.9048	38.9148	0.5021	25.2930	525.0000	2560.5715
445.0572	41.4362	0.4671	24.1868	547.5000	2602.5000
445.2096	39.8815	0.5936	23.2041	543.5000	2604.5000
445.3620	35.3025	0.8477	23.0190	547.4286	2574.5000
445.5144	40.2907	0.5120	24.2044	556.5000	2511.4285
445.6668	40.6090	0.4538	23.8212	550.5000	2580.0000
445.8192	42.0658	0.2978	23.6161	549.0000	2632.5000
445.9716	40.1687	0.3082	23.5636	534.2857	2628.0000
446.1240	43.3250	0.2300	23.2839	534.5000	2594.5000
446.2764	46.0840	0.1788	23.6490	563.5000	2521.1428
446.4288	44.5465	0.1002	24.4604	548.0000	2632.0000
446.5812	40.9813	0.1362	24.5348	551.4286	2649.0000
446.7336	39.8515	0.0874	23.9214	574.0000	2647.5000
446.8860	40.7969	-0.0426	23.8591	557.5000	2709.0000
447.0384	41.2153	-0.0568	23.4370	576.0000	2704.5715
447.1908	40.8485	-0.0034	22.3350	592.0000	2667.0000
447.3432	40.2375	0.0788	22.1894	533.0000	2728.0000
447.4956	41.0405	0.0968	22.2063	577.7143	2665.0000
447.6480	41.0160	0.2412	22.1913	591.5000	2646.5000
447.8004	40.7546	0.2146	22.3039	570.0000	2681.7144
447.9528	42.0078	0.1234	22.8429	539.0000	2659.0000
448.1052	40.9392	0.0948	22.6102	529.1429	2653.5000
448.2576	39.7664	0.1470	23.4520	506.0000	2644.5715
448.4100	38.4619	0.1552	22.6037	546.5000	2645.5000
448.5624	40.3657	0.1150	22.4226	581.1429	2703.0000
448.7148	39.0397	0.1797	22.3920	545.0000	2615.5000
448.8672	38.5615	0.2487	22.9656	530.5000	2652.5715
449.0196	40.6693	0.2144	22.4688	547.5000	2626.0000
449.1720	43.9979	0.1842	22.9812	548.5714	2580.0000
449.3244	41.9572	0.3486	22.8783	501.0000	2646.8572
449.4768	36.7811	0.6889	22.6973	489.0000	2547.0000
449.6292	56.3193	0.6354	23.4351	441.5000	2542.5000
449.7816	80.6116	0.2131	25.6605	421.7143	2364.0000
449.9340	103.1434	0.7422	26.9457	391.5000	2309.7144
450.0864	99.2383	-0.0876	31.7913	402.0000	2330.0000
450.2388	93.4100	-0.4383	33.9031	385.1429	2294.0000
450.3912	93.7154	-0.4109	36.3380	387.5000	2363.4285
450.5436	90.4864	-0.4598	36.6460	385.5000	2277.5000
450.6960	95.0573	-0.4204	35.6778	397.5000	2303.0000
450.8484	90.6298	-0.3863	35.0866	396.5000	2260.0000
451.0008	94.2129	-0.3862	35.5141	428.0000	2320.5000
451.1532	90.2837	-0.3712	35.0704	399.0000	2311.5000
451.3056	95.4821	-0.4076	35.5071	399.5000	2344.0000
451.4580	84.1190	-0.2649	35.6668	387.0000	2272.5000
451.6104	84.3010	-0.2361	34.9676	388.5000	2400.0000
451.7628	86.2203	-0.1413	33.6584	425.7143	2313.5000
451.9152	99.9074	0.0033	34.3146	432.0000	2378.8572
452.0676	88.8692	-0.3082	33.3532	421.0000	2341.5000
452.2200	77.9106	0.3680	32.2675	443.5000	2328.0000
452.3724	76.0494	0.4083	32.3956	439.4286	2487.0000
452.5248	88.9236	-0.3106	34.0975	413.5000	2365.5000
452.6772	100.1499	0.0381	34.3750	424.0000	2343.4285
452.8296	96.1695	-0.3898	34.7713	441.0000	2386.5000
452.9820	94.2317	-0.4386	35.3414	437.0000	2377.5000
453.1344	84.3891	-0.0209	36.1111	415.4286	2335.0000
453.2868	68.2972	0.7648	34.2593	452.5000	2452.5715
453.4392	61.3709	0.8979	32.4027	482.0000	2496.0000
453.5916	59.7318	0.7473	31.7086	500.0000	2385.0000
453.7440	59.4576	0.6303	31.4854	493.1429	2383.4285
453.8964	55.4042	0.2996	30.9202	477.5000	2414.0000
454.0488	55.8379	0.3886	30.8511	500.0000	2453.0000
454.2012	53.3587	0.3310	31.4581	464.0000	2524.0000
454.3536	59.1983	0.1659	30.8141	489.0000	2504.5000
454.5060	63.2759	-0.1387	30.9337	496.5000	2488.0000
454.6584	64.2413	0.1892	30.9446	496.5000	2515.5000
454.8108	60.8895	0.3169	30.9120	462.8571	2524.0000
454.9632	59.8235	0.4250	30.3551	482.5000	2477.0000
455.1156	63.6424	0.2639	32.0126	445.0000	2465.7144
455.2680	57.8275	0.5674	31.1834	496.0000	2646.0000
455.4204	59.7418	0.4358	31.9108	453.1429	2701.5000
455.5728	63.1645	0.4387	32.5837	451.5000	2451.5000
455.7252	64.5859	0.5497	32.4586	461.5000	2497.1428
455.8776	62.7407	0.8767	30.9545	474.5000	2494.0000
456.0300	62.6793	0.8851	30.5657	459.4286	2483.0000
456.1824	62.3797	0.6614	30.1373	507.5000	2469.5000
456.3348	58.2027	-0.0565	31.5348	486.0000	2430.2856
456.4872	51.0683	0.0019	30.8210	472.0000	2518.0000
456.6396	42.1383	0.1185	30.4671	543.5000	2505.0000
456.7920	39.9070	0.1247	30.1948	552.0000	2674.0000
456.9444	39.8433	0.1286	30.4473	480.0000	2649.0000
457.0968	46.0607	0.1218	29.6693	497.1429	2706.8572
457.2492	47.4081	0.1659	29.4913	531.5000	2551.5000
457.4016	50.8032	0.2073	29.8817	467.5000	2565.5000
457.5540	53.5333	0.2963	31.1953	458.8571	2477.0000
457.7064	62.3835	0.3529	32.0393	462.0000	2466.2856
457.8588	69.0352	0.7451	32.6213	408.5000	2361.5000
458.0112	81.2957	-0.1476	35.7009	382.5000	2413.0000
458.1636	73.1465	0.5357	36.2253	427.4286	2355.0000
458.3160	60.2505	0.6835	34.8331	449.5000	2459.0000
458.4684	38.5302	0.7673	32.9457	477.0000	2429.1428
458.6208	44.1016	0.5121	32.2554	515.0000	2385.0000
458.7732	43.6724	0.5465	31.7931	489.0000	2327.5000
458.9256	34.0249	0.6107	28.7798	493.1429	2517.0000
459.0780	30.6903	0.6600	26.5307	543.0000	2689.0000
459.2304	34.5771	0.4678	26.0802	546.0000	2654.2856
459.3828	39.1854	0.3989	24.4148	580.0000	2665.0000
459.5352	37.1749	0.3753	23.0560	553.5000	2643.5000
459.6876	39.9548	0.3218	23.0559	543.4286	2660.5715
459.8400	38.9977	0.3805	23.0995	579.5000	2630.5000
459.9924	34.7533	0.5751	22.7519	569.7143	2699.4285
460.1448	38.9695	0.4521	23.7489	529.5000	2584.0000
460.2972	39.4040	0.3739	23.7081	525.0000	2566.5000
460.4496	37.8539	0.4204	23.4525	532.5714	2650.5000
460.6020	35.5716	0.4170	23.3936	556.5000	2603.4285
460.7544	40.5070	0.3287	23.8876	567.5000	2625.5000
460.9068	40.4855	0.3605	23.0557	584.0000	2644.0000
461.0592	37.3468	0.6400	22.4488	564.0000	2612.0000
461.2116	35.0018	0.7524	21.9450	556.0000	2557.1428
461.3640	36.9912	0.6202	22.6985	542.0000	2514.0000
461.5164	34.8583	0.7878	22.4381	546.8571	2631.0000
461.6688	35.7245	0.8002	22.8183	532.5000	2592.0000
461.8212	53.5100	0.5097	25.3531	480.0000	2596.5000
461.9736	62.5498	0.6632	27.1611	472.0000	2414.0000
462.1260	72.7206	0.6296	29.9974	428.5714	2460.0000
462.2784	70.3255	0.7263	30.8545	477.5000	2430.2856
462.4308	75.2794	0.5328	32.7396	470.5000	2467.5000
462.5832	79.1324	0.3305	33.1162	447.0000	2476.5000
462.7356	86.9559	-0.1704	34.8149	414.8571	2421.0000
462.8880	82.4356	0.1079	32.7152	450.0000	2418.2856
463.0404	82.8724	0.1079	34.1550	429.5000	2432.5000
463.1928	80.6125	0.2570	35.4605	440.0000	2340.0000
463.3452	83.7141	0.0325	36.8875	429.1429	2361.0000
463.4976	78.5125	0.3577	35.2034	405.5000	2306.0000
463.6500	80.5601	0.2399	37.1396	431.5000	2339.4285
463.8024	76.0606	0.4787	37.7017	470.0000	2358.0000
463.9548	75.1132	0.5208	37.8515	439.0000	2319.5000
464.1072	69.4813	0.7491	37.2483	429.1429	2314.5000
464.2596	66.6763	0.8278	37.8755	413.0000	2360.0000
464.4120	67.8973	0.7803	37.7201	441.5000	2422.5000
464.5644	70.8523	0.6952	35.5351	437.5000	2333.5000
464.7168	70.4810	0.5864	34.7644	449.7143	2390.8572
464.8692	65.8181	0.5075	34.0741	441.5000	2448.0000
465.0216	65.2989	0.4736	34.3227	450.0000	2432.0000
465.1740	64.8535	0.8471	32.6638	481.1429	2404.0000
465.3264	65.5932	0.8111	32.7989	469.0000	2464.5715
465.4788	59.4566	0.9316	31.0987	478.5000	2497.5000
465.6312	54.8901	0.9667	30.6507	495.0000	2556.5000
465.7836	51.4244	0.9962	28.7848	475.4286	2419.0000
465.9360	54.7299	0.9002	28.3806	476.5000	2439.5000
466.0884	53.2591	0.8921	27.8697	484.5000	2482.2856
466.2408	52.1154	0.8270	27.7475	468.5000	2444.0000
466.3932	53.9706	0.6519	26.5987	476.5000	2495.5000
466.5456	50.4065	0.7238	26.1284	491.4286	2453.0000
466.6980	46.6911	0.8841	24.6329	507.0000	2528.0000
466.8504	40.7422	0.9098	23.5414	498.5000	2571.0000
467.0028	46.6174	0.6995	24.3283	529.1429	2558.5000
467.1552	45.9100	0.6547	25.4239	523.5000	2446.8572
467.3076	47.1758	0.5628	26.0474	491.0000	2512.5000
467.4600	43.6874	0.6109	26.1285	486.0000	2513.5000
467.6124	46.3640	0.6516	26.5824	481.7143	2513.7144
467.7648	43.8142	0.6614	26.3049	503.0000	2570.0000
467.9172	43.6463	0.8157	25.8015	507.0000	2541.5000
468.0696	40.6030	0.9099	24.7097	506.8571	2530.8572
468.2220	34.7170	1.3175	22.1828	527.5000	2559.0000
468.3744	38.7881	1.1520	21.6634	504.0000	2525.1428
468.5268	61.1884	0.9171	23.1840	520.5000	2408.5000
468.6792	79.4541	0.3109	25.1298	472.5714	2425.0000
468.8316	84.2749	-0.0060	27.1448	392.0000	2427.0000
468.9840	82.7022	0.0923	30.6699	402.2222	2494.6667
469.1364	82.0191	0.1375	34.4089	400.0000	2457.2000
469.2888	81.6322	0.1618	35.5368	432.4445	2405.0000
469.4412	80.5637	0.2227	34.6894	418.6667	2436.8000
469.5936	75.3344	0.5213	33.4015	411.3846	2468.9656
469.7460	71.2805	0.6914	32.8408	407.8750	2492.0000
469.8984	66.3296	0.8265	32.1962	492.0000	2492.0000
470.0508	66.3712	0.0182	33.4537	492.0000	2492.0000
470.2032	65.9440	0.0341	33.6465	492.0000	2492.0000
470.3556	65.5168	0.0496	30.1534	492.0000	2492.0000
470.5080	65.0556	0.0661	30.1440	492.0000	2492.0000
470.6604	64.4867	0.0857	30.1280	492.0000	2492.0000
470.8128	63.9818	0.1026	30.1202	492.0000	2492.0000
470.9652	63.5091	0.1180	30.1172	492.0000	2492.0000
